%OpenBCI Raw EEG Data
%
%Sample Rate = 250.0 Hz
%First Column = SampleIndex
%Other Columns = EEG data in microvolts followed by Accel Data (in G) interleaved with Aux Data
0, -60531.41, -28765.40, -22777.75, 18584.09, 533.83, -5562.59, 26221.46, 24078.95, -0.40, -0.41, 0.82
1, -60544.23, -28773.31, -22785.52, 18585.77, 535.15, -5561.20, 26224.18, 24088.25, 0.00, 0.00, 0.00
2, -60542.29, -28769.85, -22778.08, 18589.63, 539.15, -5558.34, 26226.93, 24088.79, 0.00, 0.00, 0.00
3, -60527.56, -28761.42, -22763.04, 18590.64, 540.15, -5556.22, 26232.43, 24092.63, 0.00, 0.00, 0.00
4, -60529.62, -28763.83, -22768.02, 18590.68, 537.87, -5558.74, 26234.26, 24095.38, 0.00, 0.00, 0.00
5, -60535.12, -28765.08, -22774.01, 18588.36, 532.55, -5564.29, 26227.60, 24090.44, 0.00, 0.00, 0.00
6, -60533.64, -28762.09, -22772.31, 18591.24, 533.49, -5562.54, 26227.18, 24092.07, 0.00, 0.00, 0.00
7, -60519.83, -28757.82, -22760.20, 18586.48, 527.95, -5567.17, 26219.56, 24083.94, -0.39, -0.37, 0.86
8, -60520.41, -28760.77, -22762.05, 18589.07, 532.80, -5563.44, 26223.15, 24087.69, 0.00, 0.00, 0.00
9, -60515.89, -28757.93, -22761.61, 18588.56, 532.49, -5565.34, 26220.76, 24085.57, 0.00, 0.00, 0.00
10, -60498.19, -28752.52, -22754.77, 18588.04, 533.04, -5565.07, 26219.45, 24083.15, 0.00, 0.00, 0.00
11, -60486.99, -28749.95, -22750.14, 18589.25, 535.48, -5563.71, 26217.79, 24084.88, 0.00, 0.00, 0.00
12, -60466.77, -28746.58, -22740.33, 18591.60, 537.98, -5560.85, 26221.26, 24086.48, 0.00, 0.00, 0.00
13, -60482.50, -28760.97, -22759.24, 18594.73, 540.89, -5559.28, 26221.34, 24084.07, 0.00, 0.00, 0.00
14, -60492.65, -28761.55, -22767.04, 18600.99, 548.36, -5551.06, 26227.96, 24091.09, 0.00, 0.00, 0.00
15, -60477.87, -28752.93, -22755.15, 18604.45, 550.50, -5547.81, 26230.06, 24094.89, 0.00, 0.00, 0.00
16, -60473.67, -28754.80, -22754.70, 18603.20, 548.71, -5549.36, 26226.40, 24093.48, 0.00, 0.00, 0.00
17, -60469.13, -28755.36, -22753.23, 18600.23, 546.43, -5551.93, 26220.90, 24091.69, -0.38, -0.37, 0.85
18, -60475.32, -28759.70, -22762.10, 18595.85, 540.60, -5557.58, 26217.66, 24084.54, 0.00, 0.00, 0.00
19, -60490.90, -28767.25, -22773.79, 18596.94, 541.31, -5554.79, 26221.12, 24084.58, 0.00, 0.00, 0.00
20, -60492.11, -28762.34, -22767.49, 18603.00, 548.24, -5545.00, 26231.87, 24101.04, 0.00, 0.00, 0.00
21, -60474.92, -28754.24, -22753.72, 18600.00, 545.14, -5548.62, 26228.97, 24100.01, 0.00, 0.00, 0.00
22, -60481.89, -28759.47, -22760.13, 18591.80, 537.92, -5557.00, 26222.04, 24096.32, 0.00, 0.00, 0.00
23, -60478.66, -28754.98, -22755.86, 18597.32, 545.20, -5550.21, 26235.45, 24104.28, 0.00, 0.00, 0.00
24, -60482.93, -28758.51, -22759.42, 18598.46, 546.10, -5550.18, 26235.34, 24103.00, 0.00, 0.00, 0.00
25, -60465.73, -28749.60, -22745.89, 18598.17, 545.81, -5551.08, 26227.09, 24099.45, 0.00, 0.00, 0.00
26, -60448.68, -28746.80, -22740.64, 18599.02, 548.06, -5551.55, 26222.08, 24097.13, 0.00, 0.00, 0.00
27, -60470.16, -28760.86, -22763.66, 18603.40, 553.50, -5547.95, 26225.75, 24102.15, -0.38, -0.38, 0.85
28, -60487.84, -28762.02, -22771.84, 18604.50, 556.74, -5542.94, 26230.38, 24108.32, 0.00, 0.00, 0.00
29, -60475.50, -28755.34, -22760.29, 18601.68, 554.77, -5544.82, 26223.65, 24103.63, 0.00, 0.00, 0.00
30, -60465.24, -28755.23, -22754.61, 18599.29, 553.61, -5547.05, 26218.77, 24099.47, 0.00, 0.00, 0.00
31, -60448.52, -28749.48, -22747.95, 18594.21, 548.02, -5554.54, 26209.90, 24086.78, 0.00, 0.00, 0.00
32, -60437.42, -28747.16, -22745.47, 18596.29, 550.28, -5550.70, 26216.61, 24102.29, 0.00, 0.00, 0.00
33, -60431.67, -28746.04, -22744.26, 18600.43, 552.85, -5548.28, 26220.54, 24108.21, 0.00, 0.00, 0.00
34, -60444.90, -28754.65, -22755.57, 18599.73, 551.95, -5551.48, 26217.41, 24099.96, 0.00, 0.00, 0.00
35, -60441.62, -28750.40, -22750.65, 18592.81, 544.60, -5559.97, 26211.87, 24084.79, 0.00, 0.00, 0.00
36, -60437.30, -28748.32, -22748.49, 18594.15, 546.05, -5557.43, 26214.66, 24084.72, 0.00, 0.00, 0.00
37, -60418.51, -28744.32, -22738.34, 18599.42, 550.23, -5551.86, 26217.88, 24091.29, 0.00, 0.00, 0.00
38, -60423.22, -28752.21, -22747.44, 18605.79, 555.44, -5549.98, 26216.47, 24092.25, -0.38, -0.38, 0.84
39, -60438.27, -28755.45, -22757.96, 18606.91, 557.07, -5548.66, 26214.53, 24089.90, 0.00, 0.00, 0.00
40, -60428.21, -28749.06, -22752.04, 18605.64, 554.50, -5549.07, 26217.01, 24095.16, 0.00, 0.00, 0.00
41, -60442.33, -28757.42, -22765.81, 18602.95, 552.71, -5549.87, 26220.18, 24096.83, 0.00, 0.00, 0.00
42, -60432.90, -28748.07, -22754.28, 18603.91, 553.47, -5549.87, 26223.42, 24100.50, 0.00, 0.00, 0.00
43, -60423.40, -28746.04, -22748.53, 18605.50, 553.68, -5550.94, 26224.09, 24099.74, 0.00, 0.00, 0.00
44, -60418.08, -28746.89, -22746.45, 18601.86, 549.20, -5554.23, 26223.38, 24098.02, 0.00, 0.00, 0.00
45, -60416.96, -28749.91, -22748.85, 18600.96, 548.76, -5552.04, 26224.94, 24103.81, 0.00, 0.00, 0.00
46, -60430.20, -28756.95, -22759.86, 18601.70, 550.37, -5552.46, 26221.86, 24103.38, 0.00, 0.00, 0.00
47, -60415.24, -28746.69, -22744.89, 18595.49, 545.38, -5556.13, 26221.17, 24099.81, 0.00, 0.00, 0.00
48, -60407.49, -28747.07, -22743.37, 18598.35, 546.86, -5555.32, 26220.09, 24092.95, -0.37, -0.38, 0.84
49, -60397.27, -28742.38, -22737.85, 18600.50, 551.22, -5551.01, 26220.67, 24093.03, 0.00, 0.00, 0.00
50, -60383.73, -28739.04, -22732.55, 18604.99, 555.80, -5549.45, 26220.58, 24092.83, 0.00, 0.00, 0.00
51, -60391.75, -28747.40, -22744.40, 18609.01, 558.30, -5549.80, 26220.36, 24090.13, 0.00, 0.00, 0.00
52, -60397.68, -28748.30, -22747.66, 18607.89, 555.89, -5552.24, 26218.95, 24088.23, 0.00, 0.00, 0.00
53, -60386.88, -28743.31, -22737.38, 18609.64, 557.07, -5550.85, 26221.12, 24096.88, 0.00, 0.00, 0.00
54, -60388.51, -28746.67, -22743.62, 18608.52, 556.96, -5551.32, 26222.62, 24093.59, 0.00, 0.00, 0.00
55, -60380.82, -28742.96, -22739.68, 18608.34, 556.20, -5553.80, 26220.85, 24086.15, 0.00, 0.00, 0.00
56, -60381.80, -28749.13, -22744.98, 18612.36, 561.52, -5547.68, 26233.39, 24098.09, 0.00, 0.00, 0.00
57, -60396.25, -28754.49, -22754.37, 18609.86, 561.10, -5547.55, 26234.31, 24097.19, 0.00, 0.00, 0.00
58, -60400.60, -28753.55, -22754.23, 18603.49, 554.88, -5551.99, 26230.62, 24094.02, -0.38, -0.39, 0.85
59, -60417.52, -28756.84, -22763.78, 18603.60, 553.72, -5552.75, 26230.35, 24093.57, 0.00, 0.00, 0.00
60, -60419.36, -28752.25, -22761.54, 18597.72, 549.43, -5555.44, 26228.94, 24093.86, 0.00, 0.00, 0.00
61, -60416.52, -28749.33, -22756.78, 18595.22, 547.37, -5554.79, 26227.89, 24103.05, 0.00, 0.00, 0.00
62, -60397.65, -28742.98, -22743.37, 18597.43, 548.80, -5553.47, 26222.91, 24097.91, 0.00, 0.00, 0.00
63, -60386.21, -28741.30, -22739.03, 18597.46, 550.03, -5553.18, 26215.27, 24094.35, 0.00, 0.00, 0.00
64, -60391.19, -28746.62, -22747.28, 18592.43, 545.02, -5560.22, 26203.57, 24087.85, 0.00, 0.00, 0.00
65, -60394.70, -28748.28, -22750.10, 18589.03, 541.27, -5563.97, 26197.50, 24083.74, 0.00, 0.00, 0.00
66, -60381.45, -28740.65, -22739.32, 18592.49, 545.78, -5559.68, 26198.59, 24084.63, 0.00, 0.00, 0.00
67, -60368.80, -28737.68, -22733.76, 18596.45, 550.97, -5555.84, 26201.76, 24088.21, 0.00, 0.00, 0.00
68, -60361.00, -28735.60, -22729.87, 18601.19, 554.66, -5553.89, 26205.50, 24080.92, -0.38, -0.39, 0.85
69, -60361.02, -28737.41, -22733.49, 18608.25, 562.46, -5546.00, 26215.33, 24089.64, 0.00, 0.00, 0.00
70, -60359.05, -28737.77, -22733.60, 18611.25, 567.53, -5540.10, 26221.72, 24094.38, 0.00, 0.00, 0.00
71, -60364.10, -28741.97, -22740.04, 18611.20, 569.03, -5535.16, 26228.83, 24103.88, 0.00, 0.00, 0.00
72, -60375.70, -28747.00, -22750.86, 18608.18, 568.05, -5535.21, 26228.05, 24105.64, 0.00, 0.00, 0.00
73, -60372.42, -28742.24, -22744.46, 18612.70, 574.13, -5528.93, 26236.48, 24116.10, 0.00, 0.00, 0.00
74, -60351.77, -28730.95, -22729.13, 18613.66, 574.28, -5528.32, 26236.30, 24112.41, 0.00, 0.00, 0.00
75, -60350.02, -28735.51, -22735.75, 18610.31, 569.88, -5533.24, 26232.77, 24105.86, 0.00, 0.00, 0.00
76, -60352.19, -28737.06, -22742.41, 18608.70, 568.16, -5536.33, 26226.22, 24105.73, 0.00, 0.00, 0.00
77, -60359.59, -28741.35, -22747.53, 18611.47, 573.14, -5529.87, 26234.67, 24121.44, 0.00, 0.00, 0.00
78, -60362.47, -28742.00, -22748.08, 18606.98, 567.56, -5534.25, 26233.37, 24112.97, -0.38, -0.38, 0.85
79, -60343.20, -28730.91, -22733.00, 18610.84, 568.49, -5533.93, 26231.80, 24107.12, 0.00, 0.00, 0.00
80, -60336.32, -28734.84, -22733.09, 18614.85, 570.93, -5531.99, 26230.49, 24110.58, 0.00, 0.00, 0.00
81, -60344.28, -28737.08, -22739.41, 18612.05, 569.16, -5535.07, 26228.05, 24111.56, 0.00, 0.00, 0.00
82, -60329.17, -28729.43, -22729.71, 18614.38, 570.51, -5533.98, 26227.69, 24110.94, 0.00, 0.00, 0.00
83, -60318.62, -28730.39, -22727.95, 18610.17, 567.35, -5537.04, 26225.39, 24106.58, 0.00, 0.00, 0.00
84, -60326.80, -28736.61, -22736.35, 18607.13, 565.63, -5537.53, 26227.40, 24108.93, 0.00, 0.00, 0.00
85, -60325.97, -28734.78, -22735.03, 18602.91, 560.98, -5540.80, 26226.37, 24104.90, 0.00, 0.00, 0.00
86, -60319.60, -28734.78, -22731.43, 18600.54, 557.70, -5541.98, 26227.67, 24105.01, 0.00, 0.00, 0.00
87, -60323.33, -28737.59, -22734.90, 18595.87, 553.27, -5544.48, 26227.42, 24109.62, 0.00, 0.00, 0.00
88, -60318.13, -28732.92, -22729.98, 18599.91, 554.32, -5545.67, 26222.11, 24102.44, 0.00, 0.00, 0.00
89, -60306.77, -28726.97, -22725.26, 18600.92, 553.38, -5547.52, 26222.48, 24102.87, -0.38, -0.37, 0.85
90, -60309.41, -28733.86, -22734.27, 18599.62, 549.99, -5550.70, 26218.46, 24093.26, 0.00, 0.00, 0.00
91, -60313.68, -28730.75, -22736.19, 18597.99, 549.12, -5548.51, 26224.76, 24102.09, 0.00, 0.00, 0.00
92, -60319.36, -28736.70, -22741.16, 18602.93, 554.64, -5545.83, 26228.41, 24108.86, 0.00, 0.00, 0.00
93, -60316.00, -28732.74, -22737.40, 18602.31, 554.28, -5548.24, 26223.02, 24103.94, 0.00, 0.00, 0.00
94, -60317.57, -28737.14, -22740.93, 18605.41, 556.56, -5544.71, 26225.37, 24106.45, 0.00, 0.00, 0.00
95, -60327.98, -28739.78, -22745.04, 18605.37, 556.40, -5543.23, 26226.84, 24102.29, 0.00, 0.00, 0.00
96, -60317.30, -28732.45, -22737.80, 18604.05, 555.98, -5544.71, 26223.76, 24097.08, 0.00, 0.00, 0.00
97, -60314.14, -28732.03, -22734.52, 18606.44, 560.09, -5542.32, 26226.33, 24107.83, 0.00, 0.00, 0.00
98, -60307.33, -28730.53, -22727.54, 18610.02, 564.20, -5538.56, 26229.57, 24108.43, 0.00, 0.00, 0.00
99, -60323.31, -28740.10, -22740.42, 18613.84, 565.59, -5536.66, 26234.20, 24110.69, -0.37, -0.38, 0.85
100, -60331.71, -28739.36, -22742.77, 18613.30, 565.36, -5537.13, 26239.11, 24108.88, 0.00, 0.00, 0.00
101, -60333.01, -28741.53, -22743.32, 18607.76, 558.86, -5547.37, 26229.06, 24091.65, 0.00, 0.00, 0.00
102, -60326.02, -28736.32, -22737.69, 18604.85, 555.95, -5550.61, 26226.91, 24105.69, 0.00, 0.00, 0.00
103, -60309.79, -28729.61, -22726.11, 18602.87, 554.79, -5550.59, 26227.29, 24110.07, 0.00, 0.00, 0.00
104, -60295.41, -28727.45, -22720.59, 18599.40, 551.48, -5553.60, 26224.45, 24101.33, 0.00, 0.00, 0.00
105, -60283.57, -28725.05, -22719.12, 18599.89, 553.45, -5552.71, 26222.13, 24096.50, 0.00, 0.00, 0.00
106, -60283.43, -28725.75, -22723.07, 18594.26, 547.66, -5559.04, 26215.85, 24080.63, 0.00, 0.00, 0.00
107, -60292.40, -28733.61, -22732.80, 18599.65, 553.83, -5549.45, 26231.92, 24107.27, 0.00, 0.00, 0.00
108, -60312.98, -28741.15, -22745.47, 18596.74, 548.74, -5556.51, 26226.13, 24098.04, 0.00, 0.00, 0.00
109, -60291.75, -28726.19, -22724.04, 18594.68, 545.02, -5564.00, 26218.21, 24088.65, -0.37, -0.38, 0.85
110, -60279.03, -28723.38, -22716.61, 18596.23, 545.85, -5563.28, 26219.38, 24089.44, 0.00, 0.00, 0.00
111, -60282.86, -28728.12, -22721.71, 18594.79, 544.29, -5563.66, 26218.84, 24091.92, 0.00, 0.00, 0.00
112, -60277.45, -28727.45, -22719.18, 18595.94, 545.40, -5562.92, 26218.75, 24094.60, 0.00, 0.00, 0.00
113, -60257.64, -28717.27, -22703.85, 18595.29, 546.43, -5562.21, 26218.77, 24094.58, 0.00, 0.00, 0.00
114, -60270.38, -28729.32, -22720.23, 18592.61, 545.45, -5562.03, 26217.79, 24098.44, 0.00, 0.00, 0.00
115, -60284.31, -28732.47, -22731.41, 18595.31, 547.57, -5560.22, 26217.54, 24097.77, 0.00, 0.00, 0.00
116, -60258.65, -28717.01, -22712.30, 18599.20, 550.64, -5558.54, 26219.69, 24096.95, 0.00, 0.00, 0.00
117, -60242.55, -28717.05, -22706.00, 18598.80, 549.58, -5560.38, 26219.94, 24095.89, 0.00, 0.00, 0.00
118, -60267.59, -28729.52, -22727.68, 18601.75, 550.93, -5559.37, 26223.20, 24096.21, 0.00, 0.00, 0.00
119, -60268.32, -28727.33, -22725.00, 18599.06, 549.20, -5560.22, 26221.41, 24096.63, -0.38, -0.38, 0.85
120, -60271.68, -28729.28, -22729.13, 18598.21, 550.19, -5559.26, 26218.66, 24094.76, 0.00, 0.00, 0.00
121, -60273.82, -28725.95, -22731.10, 18597.37, 550.88, -5559.48, 26215.44, 24088.34, 0.00, 0.00, 0.00
122, -60257.42, -28716.65, -22718.02, 18604.21, 557.81, -5553.83, 26218.97, 24093.66, 0.00, 0.00, 0.00
123, -60236.27, -28709.61, -22705.04, 18606.75, 559.40, -5550.88, 26220.47, 24102.22, 0.00, 0.00, 0.00
124, -60249.93, -28723.76, -22720.26, 18606.35, 559.31, -5549.94, 26221.28, 24097.93, 0.00, 0.00, 0.00
125, -60254.63, -28724.00, -22720.97, 18599.87, 555.37, -5553.25, 26218.73, 24098.22, 0.00, 0.00, 0.00
126, -60257.60, -28724.03, -22724.66, 18598.95, 554.64, -5556.87, 26211.17, 24082.33, 0.00, 0.00, 0.00
127, -60233.79, -28709.70, -22707.47, 18600.23, 557.05, -5550.09, 26221.70, 24102.98, 0.00, 0.00, 0.00
128, -60224.11, -28711.40, -22707.58, 18601.32, 559.60, -5545.27, 26230.42, 24116.48, 0.00, 0.00, 0.00
129, -60219.87, -28711.53, -22707.23, 18597.86, 554.50, -5552.40, 26222.71, 24102.38, -0.38, -0.38, 0.85
130, -60220.43, -28713.88, -22710.87, 18605.52, 561.03, -5548.84, 26224.83, 24104.84, 0.00, 0.00, 0.00
131, -60230.42, -28717.45, -22717.06, 18600.63, 557.50, -5551.90, 26216.92, 24101.39, 0.00, 0.00, 0.00
132, -60216.09, -28708.69, -22703.43, 18600.52, 557.85, -5551.32, 26215.55, 24101.86, 0.00, 0.00, 0.00
133, -60212.25, -28711.28, -22706.15, 18597.79, 556.07, -5555.10, 26210.97, 24095.60, 0.00, 0.00, 0.00
134, -60200.46, -28707.82, -22702.08, 18600.76, 558.28, -5556.15, 26209.97, 24092.34, 0.00, 0.00, 0.00
135, -60192.84, -28706.70, -22701.95, 18607.38, 563.15, -5552.64, 26215.22, 24101.13, 0.00, 0.00, 0.00
136, -60200.20, -28713.70, -22710.69, 18601.39, 556.78, -5557.81, 26209.72, 24093.30, 0.00, 0.00, 0.00
137, -60205.23, -28714.68, -22713.64, 18600.58, 554.73, -5558.63, 26209.56, 24094.42, 0.00, 0.00, 0.00
138, -60199.77, -28711.28, -22709.39, 18602.57, 557.63, -5554.30, 26219.62, 24106.94, 0.00, 0.00, 0.00
139, -60192.82, -28711.31, -22708.23, 18595.89, 550.39, -5561.40, 26213.63, 24098.62, 0.00, 0.00, 0.00
140, -60197.67, -28716.71, -22714.45, 18596.03, 550.37, -5561.25, 26215.24, 24097.28, -0.37, -0.37, 0.85
141, -60197.67, -28715.87, -22715.27, 18593.99, 548.47, -5562.92, 26213.48, 24087.22, 0.00, 0.00, 0.00
142, -60201.70, -28718.53, -22720.90, 18594.39, 548.82, -5563.15, 26215.42, 24092.88, 0.00, 0.00, 0.00
143, -60201.67, -28718.41, -22720.12, 18593.37, 549.43, -5564.11, 26215.53, 24100.37, 0.00, 0.00, 0.00
144, -60211.62, -28725.66, -22729.13, 18592.83, 550.61, -5562.81, 26217.05, 24100.28, 0.00, 0.00, 0.00
145, -60220.54, -28722.42, -22731.21, 18592.54, 550.48, -5560.33, 26221.63, 24101.19, 0.00, 0.00, 0.00
146, -60212.89, -28720.38, -22724.39, 18587.80, 544.24, -5566.75, 26215.62, 24090.38, 0.00, 0.00, 0.00
147, -60218.08, -28721.57, -22726.96, 18586.82, 543.53, -5571.15, 26212.34, 24082.69, 0.00, 0.00, 0.00
148, -60186.45, -28705.52, -22703.00, 18589.43, 546.81, -5567.33, 26221.97, 24092.14, 0.00, 0.00, 0.00
149, -60178.49, -28709.14, -22708.50, 18590.10, 544.56, -5568.71, 26221.08, 24094.82, 0.00, 0.00, 0.00
150, -60197.31, -28720.96, -22727.95, 18588.29, 542.14, -5570.14, 26215.60, 24096.45, -0.38, -0.38, 0.86
151, -60191.66, -28713.52, -22719.68, 18585.74, 535.88, -5576.89, 26205.47, 24089.21, 0.00, 0.00, 0.00
152, -60180.66, -28712.29, -22713.15, 18588.83, 537.96, -5574.64, 26210.44, 24087.20, 0.00, 0.00, 0.00
153, -60184.80, -28714.46, -22716.17, 18587.71, 542.50, -5567.62, 26218.89, 24093.50, 0.00, 0.00, 0.00
154, -60175.21, -28711.69, -22712.77, 18579.60, 538.86, -5570.30, 26215.13, 24090.08, 0.00, 0.00, 0.00
155, -60173.24, -28710.23, -22715.50, 18575.82, 537.02, -5574.19, 26211.29, 24089.64, 0.00, 0.00, 0.00
156, -60161.08, -28702.37, -22706.94, 18574.54, 536.31, -5574.39, 26211.46, 24093.91, 0.00, 0.00, 0.00
157, -60151.18, -28702.52, -22704.39, 18567.53, 531.39, -5577.16, 26210.26, 24091.83, 0.00, 0.00, 0.00
158, -60140.74, -28702.12, -22700.19, 18561.58, 530.41, -5577.61, 26210.71, 24090.40, 0.00, 0.00, 0.00
159, -60146.33, -28712.31, -22711.05, 18555.05, 523.34, -5586.24, 26203.08, 24078.08, 0.00, 0.00, 0.00
160, -60153.97, -28712.36, -22716.99, 18554.47, 522.43, -5587.06, 26204.94, 24076.90, -0.38, -0.38, 0.85
161, -60160.01, -28714.73, -22721.98, 18550.12, 519.37, -5589.10, 26204.36, 24073.34, 0.00, 0.00, 0.00
162, -60149.19, -28708.49, -22713.73, 18544.68, 513.51, -5594.82, 26196.38, 24068.74, 0.00, 0.00, 0.00
163, -60139.67, -28706.37, -22707.16, 18538.51, 506.78, -5600.27, 26194.25, 24065.74, 0.00, 0.00, 0.00
164, -60130.37, -28702.92, -22703.47, 18538.74, 507.12, -5600.30, 26193.09, 24067.04, 0.00, 0.00, 0.00
165, -60111.41, -28698.25, -22693.57, 18541.24, 508.97, -5599.40, 26192.98, 24070.95, 0.00, 0.00, 0.00
166, -60132.61, -28716.20, -22715.88, 18540.77, 508.37, -5599.13, 26197.03, 24070.50, 0.00, 0.00, 0.00
167, -60154.18, -28717.97, -22730.43, 18536.84, 503.72, -5603.00, 26194.19, 24064.74, 0.00, 0.00, 0.00
168, -60144.03, -28712.25, -22722.16, 18541.91, 506.07, -5602.67, 26190.68, 24065.92, 0.00, 0.00, 0.00
169, -60142.98, -28711.71, -22721.62, 18545.13, 508.26, -5603.36, 26183.99, 24058.84, 0.00, 0.00, 0.00
170, -60132.74, -28709.29, -22714.51, 18550.47, 513.64, -5598.75, 26187.13, 24065.97, -0.38, -0.38, 0.85
171, -60132.38, -28708.38, -22713.53, 18549.29, 512.70, -5601.17, 26185.58, 24061.61, 0.00, 0.00, 0.00
172, -60111.59, -28699.68, -22699.29, 18547.86, 511.90, -5602.35, 26185.94, 24061.52, 0.00, 0.00, 0.00
173, -60112.87, -28706.05, -22705.28, 18546.65, 510.80, -5602.33, 26188.78, 24064.36, 0.00, 0.00, 0.00
174, -60119.64, -28708.18, -22709.86, 18542.65, 507.92, -5602.40, 26190.79, 24062.19, 0.00, 0.00, 0.00
175, -60119.11, -28707.28, -22707.03, 18542.25, 507.47, -5600.88, 26194.41, 24060.00, 0.00, 0.00, 0.00
176, -60120.54, -28709.61, -22712.95, 18534.98, 501.01, -5605.86, 26189.11, 24058.30, 0.00, 0.00, 0.00
177, -60105.43, -28700.27, -22701.93, 18536.21, 501.55, -5605.53, 26189.22, 24060.89, 0.00, 0.00, 0.00
178, -60087.54, -28699.79, -22695.87, 18539.23, 504.70, -5603.58, 26189.18, 24058.90, 0.00, 0.00, 0.00
179, -60116.67, -28719.55, -22724.77, 18545.96, 512.39, -5596.36, 26199.11, 24077.72, 0.00, 0.00, 0.00
180, -60157.75, -28729.77, -22748.31, 18540.68, 507.07, -5603.72, 26192.06, 24069.12, -0.38, -0.38, 0.85
181, -60146.62, -28714.19, -22730.83, 18540.62, 506.56, -5605.04, 26191.95, 24063.17, 0.00, 0.00, 0.00
182, -60146.55, -28715.62, -22731.10, 18538.85, 505.17, -5603.63, 26193.83, 24061.18, 0.00, 0.00, 0.00
183, -60146.64, -28714.64, -22731.37, 18535.38, 502.20, -5606.20, 26186.63, 24060.22, 0.00, 0.00, 0.00
184, -60163.09, -28724.03, -22744.06, 18534.47, 503.20, -5606.87, 26189.92, 24059.04, 0.00, 0.00, 0.00
185, -60168.77, -28720.18, -22742.01, 18535.61, 505.28, -5604.57, 26200.63, 24065.36, 0.00, 0.00, 0.00
186, -60160.59, -28714.64, -22729.87, 18534.67, 504.17, -5606.22, 26199.04, 24067.44, 0.00, 0.00, 0.00
187, -60156.93, -28714.93, -22727.77, 18534.33, 503.61, -5607.43, 26196.38, 24061.56, 0.00, 0.00, 0.00
188, -60147.16, -28709.52, -22723.16, 18536.61, 505.84, -5604.99, 26197.32, 24066.97, 0.00, 0.00, 0.00
189, -60129.57, -28706.14, -22714.87, 18532.05, 501.13, -5610.62, 26189.72, 24058.10, 0.00, 0.00, 0.00
190, -60152.81, -28720.29, -22735.86, 18534.42, 500.92, -5611.94, 26188.62, 24053.09, 0.00, 0.00, 0.00
191, -60146.78, -28712.18, -22725.55, 18537.80, 503.81, -5605.57, 26199.22, 24071.69, -0.38, -0.38, 0.85
192, -60157.64, -28722.71, -22735.28, 18535.70, 500.99, -5610.65, 26192.87, 24060.47, 0.00, 0.00, 0.00
193, -60178.07, -28725.63, -22746.59, 18535.90, 501.60, -5612.79, 26191.77, 24054.19, 0.00, 0.00, 0.00
194, -60142.06, -28704.38, -22716.08, 18539.90, 507.03, -5610.27, 26194.46, 24051.50, 0.00, 0.00, 0.00
195, -60128.85, -28702.86, -22713.04, 18533.82, 502.11, -5615.29, 26190.41, 24054.63, 0.00, 0.00, 0.00
196, -60134.44, -28708.15, -22720.41, 18536.14, 502.76, -5614.49, 26192.51, 24058.84, 0.00, 0.00, 0.00
197, -60119.33, -28702.23, -22709.24, 18538.76, 504.97, -5612.99, 26194.57, 24056.85, 0.00, 0.00, 0.00
198, -60133.88, -28713.18, -22722.16, 18540.48, 508.59, -5609.13, 26198.84, 24064.29, 0.00, 0.00, 0.00
199, -60124.38, -28703.68, -22711.96, 18539.45, 506.11, -5612.17, 26191.64, 24058.72, 0.00, 0.00, 0.00
200, -60109.79, -28701.90, -22705.08, 18540.82, 503.45, -5615.18, 26184.80, 24051.35, 0.00, 0.00, 0.00
201, -60119.04, -28710.50, -22719.03, 18542.43, 505.73, -5613.46, 26186.77, 24056.15, -0.38, -0.38, 0.85
202, -60129.30, -28713.59, -22727.99, 18546.14, 510.98, -5607.99, 26192.11, 24065.99, 0.00, 0.00, 0.00
203, -60139.58, -28716.38, -22733.40, 18545.33, 508.97, -5607.49, 26187.84, 24062.14, 0.00, 0.00, 0.00
204, -60142.64, -28714.70, -22734.09, 18550.12, 512.70, -5602.11, 26190.92, 24065.52, 0.00, 0.00, 0.00
205, -60149.01, -28717.07, -22737.02, 18547.77, 511.43, -5603.20, 26190.63, 24069.86, 0.00, 0.00, 0.00
206, -60147.00, -28714.19, -22730.54, 18542.29, 506.02, -5608.10, 26190.41, 24065.09, 0.00, 0.00, 0.00
207, -60152.81, -28719.26, -22737.69, 18545.33, 509.40, -5603.22, 26198.37, 24071.98, 0.00, 0.00, 0.00
208, -60177.98, -28724.94, -22752.11, 18542.98, 507.21, -5605.64, 26197.00, 24069.27, 0.00, 0.00, 0.00
209, -60179.32, -28721.97, -22749.36, 18542.80, 507.47, -5607.34, 26195.01, 24069.01, 0.00, 0.00, 0.00
210, -60208.42, -28735.16, -22770.84, 18542.74, 508.30, -5606.73, 26195.35, 24064.27, 0.00, 0.00, 0.00
211, -60200.38, -28721.12, -22755.62, 18544.55, 510.78, -5602.96, 26196.98, 24064.65, -0.38, -0.38, 0.85
212, -60180.46, -28714.73, -22739.64, 18549.13, 514.22, -5599.69, 26197.05, 24065.77, 0.00, 0.00, 0.00
213, -60173.84, -28713.61, -22735.93, 18547.16, 513.40, -5600.50, 26195.30, 24069.05, 0.00, 0.00, 0.00
214, -60178.36, -28715.44, -22739.90, 18547.88, 513.73, -5602.58, 26192.96, 24064.31, 0.00, 0.00, 0.00
215, -60172.04, -28712.56, -22734.83, 18548.24, 513.24, -5603.00, 26192.04, 24059.42, 0.00, 0.00, 0.00
216, -60164.73, -28711.57, -22730.14, 18547.34, 512.32, -5603.72, 26188.64, 24054.12, 0.00, 0.00, 0.00
217, -60161.15, -28713.36, -22731.41, 18541.73, 507.45, -5606.96, 26190.74, 24057.32, 0.00, 0.00, 0.00
218, -60158.18, -28712.98, -22730.23, 18545.09, 510.47, -5603.40, 26198.84, 24063.17, 0.00, 0.00, 0.00
219, -60145.37, -28709.74, -22721.49, 18549.04, 514.20, -5600.25, 26199.98, 24067.49, 0.00, 0.00, 0.00
220, -60161.15, -28717.21, -22736.84, 18551.54, 516.93, -5598.40, 26198.99, 24069.59, 0.00, 0.00, 0.00
221, -60178.00, -28724.72, -22750.86, 18553.69, 519.52, -5595.27, 26203.46, 24077.41, -0.38, -0.39, 0.85
222, -60196.98, -28728.27, -22759.60, 18551.48, 518.47, -5597.50, 26197.58, 24074.93, 0.00, 0.00, 0.00
223, -60189.89, -28719.17, -22748.46, 18551.86, 518.61, -5597.70, 26196.31, 24074.08, 0.00, 0.00, 0.00
224, -60182.52, -28714.66, -22743.99, 18554.47, 520.62, -5593.39, 26199.02, 24075.67, 0.00, 0.00, 0.00
225, -60193.96, -28718.73, -22754.81, 18553.27, 518.58, -5594.53, 26192.18, 24069.90, 0.00, 0.00, 0.00
226, -60193.38, -28718.04, -22752.11, 18550.12, 513.96, -5601.10, 26185.09, 24060.47, 0.00, 0.00, 0.00
227, -60202.10, -28723.13, -22756.69, 18552.19, 514.72, -5602.17, 26185.94, 24057.07, 0.00, 0.00, 0.00
228, -60212.07, -28725.57, -22760.29, 18556.44, 518.99, -5597.35, 26192.11, 24072.56, 0.00, 0.00, 0.00
229, -60191.21, -28712.51, -22741.27, 18557.94, 521.22, -5595.49, 26189.05, 24070.82, 0.00, 0.00, 0.00
230, -60192.26, -28717.01, -22747.17, 18555.41, 519.52, -5597.30, 26189.18, 24069.95, 0.00, 0.00, 0.00
231, -60212.11, -28725.66, -22760.47, 18555.12, 516.73, -5601.50, 26184.02, 24063.28, -0.38, -0.38, 0.85
232, -60213.00, -28720.58, -22755.97, 18553.36, 514.94, -5604.45, 26177.78, 24052.62, 0.00, 0.00, 0.00
233, -60214.23, -28723.55, -22755.28, 18562.10, 525.71, -5590.04, 26196.71, 24083.40, 0.00, 0.00, 0.00
234, -60232.56, -28729.43, -22766.26, 18563.08, 526.65, -5589.93, 26196.73, 24083.65, 0.00, 0.00, 0.00
235, -60217.09, -28720.18, -22750.52, 18560.73, 523.63, -5594.22, 26195.30, 24076.58, 0.00, 0.00, 0.00
236, -60206.68, -28716.43, -22743.26, 18562.97, 524.19, -5596.16, 26197.12, 24072.45, 0.00, 0.00, 0.00
237, -60197.43, -28711.40, -22737.71, 18559.44, 517.47, -5604.70, 26188.60, 24053.79, 0.00, 0.00, 0.00
238, -60212.34, -28723.67, -22752.00, 18555.14, 511.74, -5610.71, 26182.27, 24051.33, 0.00, 0.00, 0.00
239, -60243.40, -28736.81, -22771.96, 18555.14, 513.04, -5606.78, 26192.62, 24072.74, 0.00, 0.00, 0.00
240, -60244.74, -28728.76, -22762.37, 18554.38, 512.44, -5609.08, 26182.34, 24061.41, 0.00, 0.00, 0.00
241, -60241.84, -28726.80, -22756.78, 18554.50, 511.68, -5608.75, 26181.25, 24053.29, -0.38, -0.38, 0.85
242, -60248.61, -28730.95, -22760.36, 18555.32, 511.99, -5607.85, 26182.90, 24051.73, 0.00, 0.00, 0.00
243, -60261.66, -28731.00, -22764.96, 18552.17, 510.09, -5606.98, 26187.59, 24067.22, 0.00, 0.00, 0.00
244, -60235.00, -28715.06, -22742.63, 18549.76, 509.24, -5606.96, 26190.66, 24065.34, 0.00, 0.00, 0.00
245, -60255.36, -28730.78, -22764.45, 18556.33, 515.05, -5600.59, 26196.94, 24069.43, 0.00, 0.00, 0.00
246, -60278.41, -28737.62, -22777.66, 18559.77, 516.28, -5600.36, 26195.82, 24069.16, 0.00, 0.00, 0.00
247, -60276.84, -28728.65, -22769.30, 18554.54, 511.25, -5606.42, 26187.59, 24060.45, 0.00, 0.00, 0.00
248, -60273.55, -28728.49, -22765.29, 18551.48, 508.86, -5607.63, 26187.30, 24055.30, 0.00, 0.00, 0.00
249, -60271.75, -28724.87, -22762.26, 18549.20, 506.76, -5608.48, 26184.96, 24050.05, 0.00, 0.00, 0.00
250, -60267.81, -28723.13, -22758.12, 18553.49, 510.85, -5603.52, 26189.40, 24062.84, 0.00, 0.00, 0.00
251, -60269.20, -28726.73, -22756.69, 18557.47, 513.11, -5604.63, 26187.53, 24055.71, 0.00, 0.00, 0.00
252, -60286.56, -28734.71, -22768.43, 18560.64, 516.53, -5600.27, 26196.91, 24066.41, -0.37, -0.38, 0.85
253, -60297.16, -28735.67, -22771.31, 18558.41, 512.37, -5604.07, 26192.96, 24057.20, 0.00, 0.00, 0.00
254, -60297.34, -28730.98, -22766.64, 18554.61, 508.68, -5606.91, 26190.92, 24053.61, 0.00, 0.00, 0.00
255, -60295.15, -28730.53, -22763.60, 18550.54, 505.73, -5611.72, 26188.29, 24044.93, 0.00, 0.00, 0.00
0, -60291.91, -28729.50, -22760.58, 18549.18, 506.78, -5609.71, 26195.28, 24053.29, 0.00, 0.00, 0.00
1, -60313.48, -28741.28, -22777.61, 18550.47, 510.25, -5604.16, 26203.02, 24064.00, 0.00, 0.00, 0.00
2, -60329.14, -28740.36, -22779.94, 18546.16, 506.69, -5608.01, 26197.79, 24056.64, 0.00, 0.00, 0.00
3, -60317.50, -28730.98, -22765.79, 18543.63, 504.12, -5611.70, 26192.29, 24045.98, 0.00, 0.00, 0.00
4, -60306.86, -28726.93, -22757.07, 18544.50, 503.79, -5610.15, 26194.66, 24057.40, 0.00, 0.00, 0.00
5, -60318.95, -28733.41, -22766.48, 18548.75, 507.74, -5606.73, 26196.49, 24061.27, 0.00, 0.00, 0.00
6, -60340.61, -28740.72, -22781.17, 18541.73, 502.42, -5611.94, 26191.46, 24052.71, -0.37, -0.38, 0.85
7, -60354.25, -28741.41, -22785.55, 18545.64, 507.18, -5608.41, 26189.29, 24055.62, 0.00, 0.00, 0.00
8, -60354.18, -28738.53, -22779.11, 18543.41, 504.68, -5611.16, 26185.25, 24051.79, 0.00, 0.00, 0.00
9, -60348.14, -28734.33, -22771.49, 18540.12, 501.71, -5613.55, 26184.33, 24048.20, 0.00, 0.00, 0.00
10, -60342.91, -28736.29, -22770.19, 18539.65, 500.75, -5613.53, 26186.10, 24048.62, 0.00, 0.00, 0.00
11, -60372.48, -28750.69, -22790.33, 18541.44, 501.73, -5613.08, 26186.45, 24049.54, 0.00, 0.00, 0.00
12, -60387.19, -28752.08, -22793.88, 18543.21, 503.96, -5611.56, 26192.18, 24050.54, 0.00, 0.00, 0.00
13, -60373.82, -28738.33, -22775.91, 18549.11, 508.75, -5607.63, 26196.58, 24056.98, 0.00, 0.00, 0.00
14, -60362.20, -28737.10, -22769.27, 18549.51, 509.80, -5606.09, 26199.37, 24062.14, 0.00, 0.00, 0.00
15, -60379.01, -28743.29, -22780.70, 18546.56, 507.70, -5607.56, 26196.49, 24059.44, 0.00, 0.00, 0.00
16, -60392.38, -28748.05, -22786.51, 18543.03, 504.43, -5610.94, 26189.31, 24049.20, -0.38, -0.38, 0.85
17, -60410.80, -28750.45, -22794.06, 18539.12, 500.03, -5614.45, 26186.65, 24044.84, 0.00, 0.00, 0.00
18, -60387.57, -28734.44, -22771.87, 18547.52, 506.47, -5607.18, 26198.57, 24060.82, 0.00, 0.00, 0.00
19, -60380.91, -28734.60, -22768.80, 18541.33, 501.64, -5612.46, 26194.48, 24054.50, 0.00, 0.00, 0.00
20, -60409.77, -28751.96, -22791.98, 18542.54, 502.98, -5614.40, 26189.81, 24050.90, 0.00, 0.00, 0.00
21, -60411.82, -28745.91, -22786.35, 18539.83, 501.30, -5617.78, 26179.35, 24043.23, 0.00, 0.00, 0.00
22, -60412.54, -28747.56, -22787.42, 18544.33, 506.11, -5610.82, 26186.43, 24057.76, 0.00, 0.00, 0.00
23, -60423.67, -28750.29, -22792.16, 18545.11, 506.20, -5610.94, 26187.68, 24060.00, 0.00, 0.00, 0.00
24, -60426.17, -28747.90, -22792.27, 18538.00, 498.76, -5619.56, 26182.47, 24049.16, 0.00, 0.00, 0.00
25, -60432.88, -28748.46, -22793.79, 18537.75, 496.97, -5624.53, 26179.26, 24041.80, 0.00, 0.00, 0.00
26, -60445.17, -28753.89, -22796.81, 18542.31, 496.57, -5627.81, 26176.71, 24037.58, -0.37, -0.38, 0.85
27, -60455.86, -28753.22, -22797.66, 18542.20, 495.83, -5626.65, 26178.90, 24049.31, 0.00, 0.00, 0.00
28, -60444.30, -28744.05, -22783.94, 18540.03, 493.66, -5629.71, 26177.27, 24043.08, 0.00, 0.00, 0.00
29, -60453.35, -28753.64, -22791.60, 18537.82, 492.21, -5631.54, 26174.47, 24039.35, 0.00, 0.00, 0.00
30, -60473.04, -28756.01, -22799.99, 18535.50, 491.49, -5631.23, 26175.97, 24042.23, 0.00, 0.00, 0.00
31, -60461.00, -28747.61, -22786.62, 18535.03, 492.21, -5630.40, 26177.31, 24035.03, 0.00, 0.00, 0.00
32, -60472.73, -28757.13, -22794.98, 18538.45, 494.09, -5629.11, 26178.47, 24029.89, 0.00, 0.00, 0.00
33, -60483.98, -28759.43, -22800.03, 18541.24, 495.63, -5627.19, 26183.75, 24039.03, 0.00, 0.00, 0.00
34, -60489.09, -28754.67, -22798.15, 18536.39, 491.00, -5631.34, 26180.11, 24036.55, 0.00, 0.00, 0.00
35, -60494.14, -28757.91, -22798.04, 18545.33, 498.18, -5624.64, 26185.49, 24043.97, 0.00, 0.00, 0.00
36, -60501.83, -28759.92, -22799.18, 18546.96, 499.47, -5623.72, 26181.22, 24042.12, -0.38, -0.38, 0.85
37, -60506.66, -28757.75, -22799.36, 18539.97, 492.77, -5632.33, 26171.08, 24023.68, 0.00, 0.00, 0.00
38, -60501.79, -28755.50, -22794.35, 18543.92, 497.44, -5626.16, 26177.65, 24041.69, 0.00, 0.00, 0.00
39, -60519.92, -28761.31, -22802.67, 18547.43, 501.30, -5620.77, 26183.82, 24056.33, 0.00, 0.00, 0.00
40, -60508.67, -28752.59, -22790.78, 18543.43, 497.30, -5626.43, 26175.90, 24049.25, 0.00, 0.00, 0.00
41, -60524.07, -28760.84, -22803.79, 18540.73, 498.35, -5627.81, 26172.91, 24044.60, 0.00, 0.00, 0.00
42, -60519.71, -28754.87, -22795.07, 18545.60, 503.50, -5623.97, 26178.09, 24046.10, 0.00, 0.00, 0.00
43, -60530.29, -28763.10, -22803.21, 18544.39, 501.62, -5624.12, 26180.55, 24046.27, 0.00, 0.00, 0.00
44, -60555.77, -28770.79, -22815.92, 18541.42, 497.57, -5627.99, 26175.75, 24037.82, 0.00, 0.00, 0.00
45, -60544.75, -28757.98, -22799.65, 18539.27, 496.19, -5628.68, 26176.46, 24044.11, 0.00, 0.00, 0.00
46, -60545.15, -28757.96, -22801.04, 18542.11, 497.46, -5626.38, 26180.91, 24047.46, 0.00, 0.00, 0.00
47, -60557.73, -28764.19, -22809.26, 18541.40, 496.70, -5626.02, 26182.59, 24044.29, -0.38, -0.38, 0.85
48, -60576.64, -28768.26, -22817.26, 18541.82, 497.57, -5624.57, 26182.63, 24043.46, 0.00, 0.00, 0.00
49, -60560.20, -28756.72, -22800.54, 18533.51, 490.80, -5631.43, 26173.40, 24035.52, 0.00, 0.00, 0.00
50, -60567.79, -28763.43, -22806.69, 18539.41, 497.59, -5628.33, 26176.08, 24040.35, 0.00, 0.00, 0.00
51, -60562.09, -28759.09, -22799.79, 18546.29, 504.03, -5620.30, 26187.68, 24053.25, 0.00, 0.00, 0.00
52, -60581.09, -28769.98, -22814.94, 18547.32, 504.12, -5620.61, 26186.25, 24047.84, 0.00, 0.00, 0.00
53, -60587.82, -28767.45, -22814.56, 18546.09, 503.52, -5621.55, 26187.93, 24050.99, 0.00, 0.00, 0.00
54, -60586.23, -28767.28, -22810.94, 18544.48, 502.89, -5623.25, 26185.11, 24046.86, 0.00, 0.00, 0.00
55, -60609.91, -28777.02, -22826.38, 18548.86, 506.56, -5620.46, 26184.87, 24043.84, 0.00, 0.00, 0.00
56, -60629.57, -28779.97, -22832.40, 18542.94, 501.01, -5624.68, 26182.12, 24039.17, 0.00, 0.00, 0.00
57, -60625.84, -28769.02, -22817.35, 18545.11, 503.43, -5622.38, 26183.55, 24047.53, -0.37, -0.37, 0.85
58, -60610.87, -28761.73, -22805.78, 18540.15, 499.29, -5626.31, 26174.38, 24050.68, 0.00, 0.00, 0.00
59, -60617.32, -28767.12, -22810.65, 18535.16, 494.82, -5631.14, 26167.28, 24039.84, 0.00, 0.00, 0.00
60, -60614.73, -28764.88, -22808.01, 18533.80, 492.88, -5632.93, 26164.71, 24037.49, 0.00, 0.00, 0.00
61, -60634.67, -28772.30, -22821.67, 18535.38, 491.94, -5634.63, 26165.69, 24038.61, 0.00, 0.00, 0.00
62, -60653.31, -28777.00, -22825.42, 18540.44, 496.48, -5631.10, 26170.85, 24042.12, 0.00, 0.00, 0.00
63, -60638.83, -28766.87, -22806.18, 18546.45, 502.76, -5623.90, 26182.52, 24052.04, 0.00, 0.00, 0.00
64, -60662.41, -28778.99, -22824.08, 18547.16, 504.99, -5621.69, 26185.45, 24052.02, 0.00, 0.00, 0.00
65, -60689.72, -28785.71, -22837.60, 18543.74, 502.76, -5624.84, 26181.36, 24048.89, 0.00, 0.00, 0.00
66, -60680.83, -28773.04, -22821.51, 18548.86, 507.79, -5621.66, 26181.87, 24048.84, 0.00, 0.00, 0.00
67, -60688.70, -28779.59, -22825.62, 18545.33, 505.44, -5623.94, 26175.61, 24043.68, -0.37, -0.37, 0.85
68, -60721.39, -28792.38, -22846.03, 18541.08, 503.88, -5622.51, 26174.18, 24047.59, 0.00, 0.00, 0.00
69, -60737.22, -28791.19, -22846.57, 18543.21, 506.67, -5618.98, 26180.06, 24052.51, 0.00, 0.00, 0.00
70, -60733.15, -28783.95, -22837.65, 18543.32, 507.68, -5619.65, 26181.42, 24049.54, 0.00, 0.00, 0.00
71, -60722.00, -28775.50, -22824.06, 18532.63, 494.51, -5633.71, 26168.17, 24035.21, 0.00, 0.00, 0.00
72, -60707.52, -28769.44, -22813.75, 18527.90, 485.39, -5642.38, 26161.06, 24023.39, 0.00, 0.00, 0.00
73, -60692.58, -28765.29, -22805.93, 18540.64, 499.96, -5626.18, 26179.61, 24039.28, 0.00, 0.00, 0.00
74, -60703.89, -28774.90, -22816.97, 18557.27, 518.99, -5608.34, 26199.26, 24063.22, 0.00, 0.00, 0.00
75, -60716.77, -28779.12, -22823.79, 18565.54, 525.13, -5605.53, 26200.38, 24068.22, 0.00, 0.00, 0.00
76, -60719.76, -28777.24, -22819.21, 18562.54, 520.24, -5611.18, 26191.68, 24058.88, 0.00, 0.00, 0.00
77, -60706.91, -28768.50, -22803.61, 18569.54, 528.22, -5603.60, 26194.21, 24058.90, -0.37, -0.37, 0.85
78, -60688.49, -28765.93, -22796.16, 18575.71, 535.03, -5594.69, 26205.03, 24077.79, 0.00, 0.00, 0.00
79, -60706.35, -28779.44, -22818.47, 18581.99, 538.54, -5592.45, 26208.04, 24085.28, 0.00, 0.00, 0.00
80, -60707.11, -28775.37, -22816.30, 18585.99, 541.09, -5591.31, 26207.40, 24080.38, 0.00, 0.00, 0.00
81, -60710.98, -28777.49, -22818.09, 18592.47, 545.56, -5586.44, 26210.84, 24081.08, 0.00, 0.00, 0.00
82, -60726.38, -28783.14, -22826.14, 18592.45, 544.18, -5588.54, 26208.83, 24076.70, 0.00, 0.00, 0.00
83, -60730.94, -28780.37, -22822.47, 18590.59, 543.15, -5589.86, 26209.52, 24081.41, 0.00, 0.00, 0.00
84, -60718.42, -28771.99, -22808.26, 18592.67, 544.24, -5587.27, 26214.42, 24089.35, 0.00, 0.00, 0.00
85, -60720.50, -28773.33, -22809.73, 18590.04, 541.45, -5588.63, 26211.35, 24081.19, 0.00, 0.00, 0.00
86, -60734.58, -28782.90, -22821.22, 18590.64, 542.01, -5588.03, 26214.01, 24082.73, 0.00, 0.00, 0.00
87, -60749.49, -28787.28, -22828.64, 18586.23, 538.36, -5593.17, 26213.10, 24081.41, -0.38, -0.37, 0.85
88, -60778.13, -28797.90, -22844.78, 18583.15, 537.31, -5595.85, 26212.67, 24078.71, 0.00, 0.00, 0.00
89, -60782.04, -28787.91, -22838.47, 18584.54, 535.86, -5597.39, 26207.84, 24072.92, 0.00, 0.00, 0.00
90, -60773.99, -28782.94, -22828.30, 18591.22, 540.89, -5590.44, 26212.58, 24088.27, 0.00, 0.00, 0.00
91, -60779.46, -28782.99, -22828.82, 18582.93, 533.18, -5598.82, 26201.47, 24077.50, 0.00, 0.00, 0.00
92, -60768.02, -28777.02, -22820.39, 18579.89, 528.60, -5605.28, 26192.98, 24065.99, 0.00, 0.00, 0.00
93, -60776.38, -28782.81, -22827.57, 18590.41, 540.31, -5591.04, 26209.45, 24099.40, 0.00, 0.00, 0.00
94, -60790.42, -28787.59, -22834.97, 18585.27, 536.73, -5594.40, 26206.93, 24095.18, 0.00, 0.00, 0.00
95, -60798.62, -28789.00, -22835.61, 18583.51, 535.37, -5599.20, 26199.19, 24085.19, 0.00, 0.00, 0.00
96, -60809.73, -28793.67, -22841.56, 18584.76, 536.69, -5599.80, 26196.22, 24084.54, 0.00, 0.00, 0.00
97, -60820.91, -28792.04, -22842.90, 18581.96, 531.30, -5603.94, 26193.61, 24078.77, 0.00, 0.00, 0.00
98, -60815.38, -28788.20, -22833.94, 18580.29, 529.33, -5605.15, 26193.65, 24077.77, -0.38, -0.38, 0.85
99, -60822.69, -28794.43, -22838.10, 18583.37, 531.17, -5603.56, 26196.85, 24080.14, 0.00, 0.00, 0.00
100, -60827.70, -28790.88, -22835.93, 18584.63, 530.25, -5604.92, 26195.64, 24079.00, 0.00, 0.00, 0.00
101, -60813.77, -28781.63, -22823.90, 18583.71, 530.16, -5602.53, 26198.39, 24082.98, 0.00, 0.00, 0.00
102, -60814.11, -28785.36, -22824.97, 18583.20, 529.24, -5602.49, 26198.59, 24083.09, 0.00, 0.00, 0.00
103, -60821.57, -28788.96, -22828.89, 18585.70, 531.90, -5601.44, 26201.29, 24083.65, 0.00, 0.00, 0.00
104, -60837.27, -28795.35, -22840.40, 18584.22, 530.12, -5604.79, 26194.34, 24075.18, 0.00, 0.00, 0.00
105, -60862.05, -28801.81, -22853.65, 18571.48, 518.69, -5614.24, 26185.89, 24061.76, 0.00, 0.00, 0.00
106, -60855.06, -28792.11, -22839.84, 18577.56, 523.99, -5606.33, 26198.17, 24076.54, 0.00, 0.00, 0.00
107, -60854.34, -28795.01, -22839.59, 18585.54, 531.50, -5603.34, 26200.85, 24076.00, 0.00, 0.00, 0.00
108, -60873.79, -28800.71, -22851.44, 18581.47, 528.57, -5609.59, 26193.56, 24070.99, -0.37, -0.38, 0.85
109, -60879.89, -28796.94, -22849.36, 18579.31, 526.63, -5612.21, 26190.52, 24070.68, 0.00, 0.00, 0.00
110, -60864.71, -28789.36, -22836.20, 18579.11, 526.83, -5610.76, 26195.08, 24073.30, 0.00, 0.00, 0.00
111, -60877.34, -28797.27, -22845.85, 18579.31, 525.13, -5613.62, 26191.48, 24068.49, 0.00, 0.00, 0.00
112, -60901.01, -28803.89, -22858.39, 18576.94, 522.49, -5616.77, 26190.03, 24064.76, 0.00, 0.00, 0.00
113, -60913.38, -28803.78, -22861.23, 18570.25, 516.08, -5624.19, 26184.46, 24052.53, 0.00, 0.00, 0.00
114, -60922.83, -28806.35, -22865.41, 18581.52, 527.90, -5613.86, 26191.46, 24060.82, 0.00, 0.00, 0.00
115, -60920.55, -28799.39, -22856.04, 18582.88, 530.00, -5611.14, 26189.52, 24062.39, 0.00, 0.00, 0.00
116, -60913.46, -28797.70, -22848.44, 18580.71, 526.63, -5614.71, 26182.86, 24058.72, 0.00, 0.00, 0.00
117, -60943.71, -28813.30, -22869.25, 18578.97, 525.02, -5616.19, 26180.02, 24057.05, 0.00, 0.00, 0.00
118, -60937.07, -28799.60, -22854.14, 18579.80, 525.85, -5613.24, 26182.34, 24062.50, -0.37, -0.37, 0.85
119, -60916.59, -28793.94, -22841.27, 18579.31, 524.73, -5612.99, 26185.16, 24065.47, 0.00, 0.00, 0.00
120, -60937.47, -28805.34, -22856.83, 18577.45, 524.64, -5613.62, 26185.52, 24066.81, 0.00, 0.00, 0.00
121, -60951.35, -28807.84, -22861.19, 18576.27, 522.92, -5616.01, 26184.31, 24062.41, 0.00, 0.00, 0.00
122, -60954.25, -28802.70, -22854.95, 18577.52, 523.23, -5615.07, 26183.64, 24059.17, 0.00, 0.00, 0.00
123, -60943.86, -28796.33, -22844.02, 18579.48, 524.53, -5613.35, 26184.06, 24059.89, 0.00, 0.00, 0.00
124, -60955.75, -28806.97, -22853.56, 18578.28, 521.91, -5617.02, 26177.00, 24054.81, 0.00, 0.00, 0.00
125, -60962.08, -28806.17, -22854.23, 18580.02, 525.67, -5612.77, 26185.00, 24065.74, 0.00, 0.00, 0.00
126, -60950.75, -28799.13, -22843.91, 18575.69, 522.47, -5613.84, 26182.68, 24064.80, 0.00, 0.00, 0.00
127, -60940.02, -28793.18, -22833.63, 18574.34, 522.20, -5612.41, 26180.40, 24060.51, 0.00, 0.00, 0.00
128, -60931.90, -28796.04, -22831.37, 18577.92, 525.96, -5608.97, 26185.52, 24062.79, -0.38, -0.38, 0.84
129, -60970.84, -28815.44, -22862.44, 18577.36, 523.54, -5613.06, 26180.87, 24055.86, 0.00, 0.00, 0.00
130, -60967.27, -28805.97, -22853.05, 18577.81, 523.21, -5613.31, 26182.70, 24056.36, 0.00, 0.00, 0.00
131, -60970.84, -28809.43, -22857.99, 18580.40, 524.98, -5609.57, 26187.68, 24064.31, 0.00, 0.00, 0.00
132, -60973.68, -28803.57, -22856.85, 18582.23, 525.13, -5609.08, 26191.57, 24063.42, 0.00, 0.00, 0.00
133, -60968.11, -28798.81, -22849.40, 18580.60, 524.33, -5611.61, 26188.82, 24061.38, 0.00, 0.00, 0.00
134, -60970.24, -28801.34, -22848.53, 18580.85, 527.86, -5607.11, 26192.91, 24076.29, 0.00, 0.00, 0.00
135, -60969.63, -28799.75, -22847.35, 18583.78, 530.88, -5603.87, 26195.95, 24073.37, 0.00, 0.00, 0.00
136, -60960.38, -28794.86, -22841.18, 18585.74, 533.58, -5601.37, 26201.43, 24070.71, 0.00, 0.00, 0.00
137, -60980.68, -28808.31, -22857.94, 18583.98, 531.44, -5605.59, 26196.53, 24063.35, 0.00, 0.00, 0.00
138, -60983.22, -28804.16, -22854.66, 18580.89, 529.74, -5606.26, 26194.25, 24065.70, -0.37, -0.38, 0.85
139, -60989.53, -28809.70, -22860.04, 18583.33, 530.47, -5605.10, 26194.99, 24065.92, 0.00, 0.00, 0.00
140, -60998.69, -28810.28, -22862.23, 18583.42, 529.49, -5605.95, 26193.09, 24069.10, 0.00, 0.00, 0.00
141, -60989.59, -28800.71, -22851.53, 18578.97, 527.05, -5608.30, 26192.02, 24068.02, 0.00, 0.00, 0.00
142, -60966.37, -28793.45, -22837.76, 18580.85, 530.18, -5604.05, 26195.08, 24069.86, 0.00, 0.00, 0.00
143, -60962.64, -28798.14, -22842.23, 18582.01, 529.33, -5604.88, 26193.07, 24062.68, 0.00, 0.00, 0.00
144, -60990.64, -28815.69, -22862.91, 18581.27, 528.10, -5605.35, 26191.17, 24068.96, 0.00, 0.00, 0.00
145, -61007.45, -28817.97, -22867.20, 18582.14, 531.03, -5603.07, 26188.22, 24073.07, 0.00, 0.00, 0.00
146, -61022.20, -28820.23, -22871.91, 18578.54, 528.15, -5607.18, 26185.54, 24064.92, 0.00, 0.00, 0.00
147, -61030.74, -28819.91, -22874.13, 18581.72, 529.67, -5604.97, 26187.28, 24066.41, 0.00, 0.00, 0.00
148, -61022.25, -28809.74, -22861.12, 18584.31, 529.71, -5601.62, 26192.35, 24070.62, 0.00, 0.00, 0.00
149, -61030.63, -28817.59, -22865.59, 18582.57, 525.89, -5605.10, 26192.58, 24064.42, -0.38, -0.38, 0.84
150, -61025.82, -28811.08, -22858.14, 18583.08, 527.70, -5604.30, 26196.94, 24062.88, 0.00, 0.00, 0.00
151, -61025.11, -28814.21, -22858.28, 18587.80, 533.45, -5597.32, 26206.35, 24072.78, 0.00, 0.00, 0.00
152, -61039.80, -28817.68, -22866.37, 18595.27, 538.88, -5594.24, 26208.38, 24069.27, 0.00, 0.00, 0.00
153, -61048.31, -28819.06, -22867.89, 18592.92, 536.67, -5598.69, 26203.69, 24061.90, 0.00, 0.00, 0.00
154, -61037.74, -28809.63, -22854.68, 18592.52, 536.42, -5600.54, 26201.85, 24057.65, 0.00, 0.00, 0.00
155, -61017.60, -28804.29, -22843.48, 18592.81, 536.69, -5599.58, 26203.40, 24058.59, 0.00, 0.00, 0.00
156, -61032.87, -28816.27, -22859.15, 18594.66, 539.35, -5596.14, 26206.68, 24067.82, 0.00, 0.00, 0.00
157, -61031.30, -28809.52, -22852.89, 18598.73, 545.38, -5592.16, 26204.71, 24069.77, 0.00, 0.00, 0.00
158, -61019.86, -28807.35, -22845.36, 18600.96, 548.38, -5591.42, 26201.16, 24064.40, 0.00, 0.00, 0.00
159, -61028.64, -28813.12, -22852.96, 18600.63, 548.65, -5590.55, 26201.88, 24063.91, -0.38, -0.38, 0.84
160, -61035.28, -28817.28, -22857.12, 18596.94, 546.48, -5589.52, 26202.57, 24073.63, 0.00, 0.00, 0.00
161, -61036.67, -28815.53, -22857.47, 18599.71, 548.51, -5586.39, 26207.96, 24076.25, 0.00, 0.00, 0.00
162, -61034.74, -28811.26, -22856.07, 18596.43, 547.04, -5586.06, 26207.89, 24076.00, 0.00, 0.00, 0.00
163, -61033.92, -28809.52, -22856.09, 18595.47, 547.71, -5583.29, 26212.90, 24080.27, 0.00, 0.00, 0.00
164, -61040.73, -28810.06, -22858.26, 18595.82, 547.10, -5581.43, 26212.90, 24082.01, 0.00, 0.00, 0.00
165, -61026.90, -28803.60, -22848.11, 18595.04, 544.64, -5584.49, 26206.62, 24074.68, 0.00, 0.00, 0.00
166, -61034.88, -28810.32, -22856.69, 18591.46, 541.23, -5587.78, 26206.91, 24071.22, 0.00, 0.00, 0.00
167, -61026.90, -28803.51, -22850.54, 18588.45, 538.36, -5590.86, 26207.24, 24070.44, 0.00, 0.00, 0.00
168, -61041.70, -28814.62, -22862.59, 18592.13, 541.40, -5587.35, 26210.64, 24072.04, 0.00, 0.00, 0.00
169, -61058.75, -28821.23, -22875.29, 18592.52, 541.23, -5588.94, 26207.60, 24068.89, -0.37, -0.38, 0.84
170, -61064.85, -28819.91, -22876.94, 18591.71, 542.68, -5590.60, 26204.47, 24061.90, 0.00, 0.00, 0.00
171, -61064.65, -28818.64, -22873.17, 18593.97, 544.44, -5590.31, 26205.59, 24065.07, 0.00, 0.00, 0.00
172, -61056.63, -28814.46, -22864.52, 18598.39, 548.60, -5586.59, 26208.36, 24070.35, 0.00, 0.00, 0.00
173, -61059.35, -28818.77, -22867.11, 18596.81, 546.48, -5586.97, 26207.53, 24077.72, 0.00, 0.00, 0.00
174, -61049.59, -28814.82, -22857.21, 18595.11, 543.88, -5590.01, 26207.78, 24079.53, 0.00, 0.00, 0.00
175, -61069.64, -28824.52, -22873.12, 18598.80, 546.75, -5589.86, 26211.49, 24077.72, 0.00, 0.00, 0.00
176, -61071.80, -28819.91, -22870.39, 18597.92, 543.77, -5593.01, 26204.60, 24071.35, 0.00, 0.00, 0.00
177, -61054.93, -28811.06, -22853.70, 18597.10, 543.95, -5590.62, 26206.41, 24074.62, 0.00, 0.00, 0.00
178, -61053.32, -28815.13, -22855.87, 18594.66, 541.63, -5594.13, 26202.37, 24068.34, 0.00, 0.00, 0.00
179, -61040.82, -28809.25, -22848.20, 18595.31, 540.15, -5596.23, 26199.91, 24065.29, -0.38, -0.39, 0.85
180, -61046.46, -28817.52, -22858.50, 18594.37, 539.88, -5597.08, 26198.90, 24061.67, 0.00, 0.00, 0.00
181, -61065.23, -28825.90, -22873.01, 18596.16, 541.67, -5596.12, 26201.41, 24065.92, 0.00, 0.00, 0.00
182, -61061.10, -28819.42, -22865.45, 18594.82, 540.69, -5597.95, 26201.50, 24067.15, 0.00, 0.00, 0.00
183, -61072.25, -28826.93, -22873.12, 18594.10, 539.30, -5599.65, 26199.28, 24062.39, 0.00, 0.00, 0.00
184, -61094.27, -28835.74, -22883.47, 18593.41, 539.24, -5599.76, 26202.08, 24065.52, 0.00, 0.00, 0.00
185, -61084.28, -28823.45, -22869.39, 18595.00, 538.57, -5600.59, 26199.31, 24058.72, 0.00, 0.00, 0.00
186, -61073.99, -28820.85, -22864.43, 18598.80, 543.28, -5595.18, 26204.83, 24068.27, 0.00, 0.00, 0.00
187, -61086.55, -28826.20, -22872.92, 18597.57, 543.01, -5596.79, 26204.04, 24066.99, 0.00, 0.00, 0.00
188, -61094.13, -28825.23, -22873.01, 18595.69, 541.23, -5600.18, 26199.28, 24061.00, 0.00, 0.00, 0.00
189, -61093.73, -28823.96, -22872.36, 18595.49, 541.07, -5600.16, 26198.46, 24060.80, -0.38, -0.38, 0.85
190, -61079.83, -28815.49, -22860.85, 18592.54, 537.94, -5602.17, 26196.22, 24057.79, 0.00, 0.00, 0.00
191, -61081.37, -28822.93, -22866.82, 18590.08, 536.40, -5604.83, 26197.34, 24060.09, 0.00, 0.00, 0.00
192, -61114.34, -28839.49, -22890.73, 18585.34, 531.57, -5610.27, 26192.40, 24056.02, 0.00, 0.00, 0.00
193, -61108.82, -28826.06, -22878.44, 18585.59, 531.10, -5607.58, 26195.97, 24059.10, 0.00, 0.00, 0.00
194, -61094.27, -28819.53, -22867.00, 18590.46, 536.24, -5601.88, 26196.11, 24064.09, 0.00, 0.00, 0.00
195, -61113.49, -28833.17, -22883.54, 18586.46, 534.12, -5604.32, 26193.43, 24061.65, 0.00, 0.00, 0.00
196, -61137.59, -28842.27, -22896.77, 18588.36, 535.37, -5601.59, 26197.50, 24061.21, 0.00, 0.00, 0.00
197, -61148.27, -28840.25, -22896.97, 18586.62, 533.51, -5599.96, 26203.35, 24057.03, 0.00, 0.00, 0.00
198, -61142.66, -28833.39, -22887.56, 18589.56, 535.50, -5596.07, 26208.45, 24054.90, 0.00, 0.00, 0.00
199, -61137.99, -28827.78, -22878.71, 18590.93, 538.05, -5592.94, 26210.46, 24062.08, 0.00, 0.00, 0.00
200, -61135.15, -28830.31, -22877.03, 18589.65, 536.24, -5595.18, 26208.63, 24063.73, -0.37, -0.38, 0.85
201, -61132.45, -28829.97, -22873.48, 18588.22, 534.45, -5597.75, 26206.93, 24062.03, 0.00, 0.00, 0.00
202, -61121.47, -28826.80, -22867.62, 18586.03, 532.17, -5598.04, 26206.21, 24068.45, 0.00, 0.00, 0.00
203, -61141.05, -28837.24, -22883.80, 18589.19, 535.08, -5595.96, 26208.22, 24068.78, 0.00, 0.00, 0.00
204, -61142.01, -28832.77, -22880.85, 18583.80, 530.70, -5602.15, 26202.39, 24061.67, 0.00, 0.00, 0.00
205, -61145.07, -28832.32, -22881.73, 18584.36, 531.68, -5602.67, 26201.23, 24058.77, 0.00, 0.00, 0.00
206, -61115.52, -28818.46, -22857.63, 18588.36, 536.51, -5597.21, 26207.46, 24065.45, 0.00, 0.00, 0.00
207, -61118.25, -28830.71, -22866.55, 18584.89, 533.92, -5598.46, 26204.74, 24067.82, 0.00, 0.00, 0.00
208, -61118.14, -28828.01, -22866.48, 18584.00, 532.91, -5602.11, 26199.93, 24063.80, 0.00, 0.00, 0.00
209, -61119.88, -28832.01, -22870.06, 18585.54, 535.75, -5599.20, 26200.24, 24066.81, 0.00, 0.00, 0.00
210, -61125.96, -28831.60, -22870.01, 18585.16, 535.75, -5599.89, 26197.23, 24060.42, -0.38, -0.39, 0.85
211, -61111.16, -28828.21, -22860.18, 18591.35, 542.54, -5594.19, 26202.97, 24067.13, 0.00, 0.00, 0.00
212, -61125.67, -28836.41, -22873.93, 18595.69, 544.00, -5593.46, 26207.53, 24067.78, 0.00, 0.00, 0.00
213, -61127.41, -28836.03, -22874.60, 18594.01, 541.99, -5595.00, 26209.21, 24067.55, 0.00, 0.00, 0.00
214, -61153.28, -28845.35, -22890.09, 18592.83, 541.94, -5593.93, 26208.22, 24064.85, 0.00, 0.00, 0.00
215, -61156.41, -28840.28, -22884.97, 18589.41, 538.65, -5596.65, 26203.46, 24052.06, 0.00, 0.00, 0.00
216, -61130.90, -28825.84, -22865.45, 18591.04, 541.07, -5593.68, 26207.51, 24055.28, 0.00, 0.00, 0.00
217, -61120.42, -28827.74, -22862.97, 18589.03, 541.99, -5593.28, 26212.25, 24060.18, 0.00, 0.00, 0.00
218, -61120.53, -28830.55, -22864.63, 18589.83, 543.30, -5591.56, 26215.73, 24064.58, 0.00, 0.00, 0.00
219, -61140.42, -28840.19, -22881.48, 18592.49, 544.56, -5590.17, 26218.08, 24070.15, 0.00, 0.00, 0.00
220, -61124.55, -28826.73, -22863.55, 18590.86, 541.20, -5596.09, 26208.92, 24060.94, -0.38, -0.38, 0.85
221, -61136.69, -28836.61, -22877.28, 18594.73, 543.62, -5597.19, 26203.49, 24053.76, 0.00, 0.00, 0.00
222, -61149.39, -28837.93, -22884.99, 18591.49, 540.64, -5596.34, 26210.19, 24066.17, 0.00, 0.00, 0.00
223, -61159.60, -28841.19, -22889.93, 18587.80, 536.29, -5600.34, 26205.56, 24061.63, 0.00, 0.00, 0.00
224, -61165.97, -28840.48, -22887.98, 18586.03, 533.56, -5603.67, 26201.79, 24057.94, 0.00, 0.00, 0.00
225, -61163.56, -28838.04, -22882.08, 18582.21, 528.75, -5607.52, 26199.35, 24053.79, 0.00, 0.00, 0.00
226, -61149.68, -28830.04, -22869.90, 18587.69, 532.20, -5605.71, 26202.48, 24050.57, 0.00, 0.00, 0.00
227, -61136.78, -28826.91, -22862.32, 18585.83, 528.26, -5609.17, 26200.58, 24045.83, 0.00, 0.00, 0.00
228, -61134.75, -28830.15, -22862.57, 18582.41, 526.45, -5609.71, 26200.11, 24048.78, 0.00, 0.00, 0.00
229, -61161.23, -28845.42, -22885.50, 18580.20, 526.09, -5612.32, 26196.53, 24051.68, 0.00, 0.00, 0.00
230, -61175.80, -28843.83, -22889.10, 18580.31, 525.76, -5611.90, 26198.01, 24053.36, -0.37, -0.38, 0.85
231, -61152.45, -28833.91, -22870.88, 18576.98, 523.77, -5610.89, 26195.53, 24045.31, 0.00, 0.00, 0.00
232, -61159.51, -28840.95, -22878.87, 18582.19, 529.87, -5602.60, 26202.97, 24057.03, 0.00, 0.00, 0.00
233, -61145.12, -28833.06, -22867.64, 18581.32, 530.47, -5600.41, 26201.88, 24062.97, 0.00, 0.00, 0.00
234, -61140.11, -28831.94, -22864.85, 18578.72, 530.92, -5598.53, 26202.99, 24059.06, 0.00, 0.00, 0.00
235, -61129.11, -28826.44, -22859.11, 18581.09, 536.08, -5591.56, 26212.20, 24063.13, 0.00, 0.00, 0.00
236, -61112.21, -28821.30, -22851.66, 18581.76, 535.93, -5592.85, 26214.13, 24061.74, 0.00, 0.00, 0.00
237, -61111.66, -28826.48, -22857.72, 18581.03, 534.92, -5597.44, 26212.63, 24060.24, 0.00, 0.00, 0.00
238, -61109.46, -28825.84, -22856.27, 18581.25, 534.01, -5601.66, 26209.48, 24055.86, 0.00, 0.00, 0.00
239, -61095.47, -28820.05, -22847.28, 18584.83, 534.50, -5601.64, 26208.29, 24057.54, 0.00, 0.00, 0.00
240, -61095.41, -28825.99, -22852.40, 18581.34, 530.99, -5603.00, 26207.33, 24060.94, -0.37, -0.38, 0.85
241, -61094.98, -28826.13, -22852.76, 18583.71, 532.37, -5602.49, 26207.24, 24064.45, 0.00, 0.00, 0.00
242, -61101.55, -28834.49, -22862.30, 18582.70, 532.46, -5603.58, 26204.89, 24059.33, 0.00, 0.00, 0.00
243, -61107.66, -28833.55, -22865.95, 18579.95, 529.09, -5606.80, 26198.46, 24051.88, 0.00, 0.00, 0.00
244, -61110.05, -28835.00, -22869.05, 18586.84, 538.83, -5597.97, 26201.03, 24059.55, 0.00, 0.00, 0.00
245, -61115.93, -28839.43, -22873.21, 18584.63, 539.59, -5598.11, 26203.02, 24057.83, 0.00, 0.00, 0.00
246, -61099.21, -28829.35, -22856.89, 18584.49, 540.33, -5595.96, 26211.42, 24068.27, 0.00, 0.00, 0.00
247, -61102.98, -28833.79, -22862.57, 18586.77, 541.09, -5594.75, 26213.19, 24063.17, 0.00, 0.00, 0.00
248, -61090.15, -28824.90, -22853.54, 18586.71, 540.11, -5594.35, 26213.25, 24065.14, 0.00, 0.00, 0.00
249, -61091.83, -28831.47, -22858.32, 18585.18, 539.84, -5595.40, 26212.11, 24060.18, 0.00, 0.00, 0.00
250, -61103.39, -28837.75, -22866.91, 18584.27, 539.30, -5598.62, 26207.75, 24051.77, 0.00, 0.00, 0.00
251, -61088.25, -28826.98, -22854.37, 18586.12, 542.39, -5595.85, 26210.08, 24057.00, -0.38, -0.37, 0.85
252, -61074.95, -28827.38, -22848.89, 18587.78, 545.18, -5590.69, 26223.15, 24067.93, 0.00, 0.00, 0.00
253, -61070.08, -28826.15, -22847.30, 18589.65, 545.90, -5588.63, 26223.94, 24066.26, 0.00, 0.00, 0.00
254, -61068.74, -28827.58, -22849.61, 18587.24, 543.46, -5590.71, 26221.01, 24061.00, 0.00, 0.00, 0.00
255, -61053.05, -28820.79, -22841.34, 18589.36, 545.72, -5589.75, 26223.15, 24061.27, 0.00, 0.00, 0.00
0, -61066.44, -28833.06, -22857.29, 18586.53, 543.15, -5591.42, 26219.36, 24058.37, 0.00, 0.00, 0.00
1, -61094.11, -28841.73, -22875.62, 18590.86, 547.08, -5588.16, 26221.23, 24064.85, 0.00, 0.00, 0.00
2, -61115.16, -28842.78, -22884.70, 18590.57, 545.32, -5593.10, 26216.43, 24061.05, 0.00, 0.00, 0.00
3, -61092.93, -28826.08, -22862.53, 18589.34, 541.09, -5599.47, 26208.87, 24052.87, 0.00, 0.00, 0.00
4, -61077.12, -28821.66, -22850.79, 18590.15, 537.20, -5602.87, 26205.25, 24052.33, 0.00, 0.00, 0.00
5, -61076.83, -28825.88, -22850.84, 18592.72, 539.21, -5601.37, 26208.78, 24057.45, -0.37, -0.37, 0.85
6, -61069.01, -28821.77, -22842.79, 18590.88, 537.94, -5604.97, 26205.32, 24048.42, 0.00, 0.00, 0.00
7, -61065.79, -28821.14, -22846.28, 18587.58, 536.49, -5607.09, 26207.29, 24047.73, 0.00, 0.00, 0.00
8, -61055.26, -28817.90, -22841.00, 18589.25, 538.54, -5603.94, 26213.01, 24056.67, 0.00, 0.00, 0.00
9, -61049.79, -28819.47, -22841.60, 18588.11, 536.40, -5603.74, 26214.33, 24059.84, 0.00, 0.00, 0.00
10, -61070.37, -28831.16, -22859.82, 18593.57, 542.66, -5598.55, 26219.89, 24066.66, 0.00, 0.00, 0.00
11, -61072.77, -28828.88, -22860.89, 18591.69, 541.38, -5599.45, 26217.16, 24060.45, 0.00, 0.00, 0.00
12, -61069.93, -28826.64, -22857.90, 18591.96, 541.63, -5598.91, 26214.39, 24056.20, 0.00, 0.00, 0.00
13, -61055.00, -28820.81, -22845.18, 18596.18, 547.19, -5592.81, 26219.73, 24067.71, 0.00, 0.00, 0.00
14, -61036.75, -28817.19, -22836.93, 18592.83, 543.44, -5596.41, 26211.49, 24057.18, 0.00, 0.00, 0.00
15, -61048.31, -28826.44, -22852.94, 18592.78, 543.73, -5595.85, 26210.08, 24053.52, -0.37, -0.38, 0.85
16, -61085.66, -28840.10, -22878.48, 18596.92, 548.20, -5590.64, 26209.77, 24051.33, 0.00, 0.00, 0.00
17, -61075.13, -28826.82, -22861.01, 18597.95, 551.37, -5584.45, 26215.15, 24062.10, 0.00, 0.00, 0.00
18, -61040.98, -28812.85, -22833.20, 18603.20, 555.15, -5581.88, 26218.46, 24067.98, 0.00, 0.00, 0.00
19, -61028.13, -28815.78, -22831.68, 18601.86, 551.06, -5587.80, 26215.89, 24063.98, 0.00, 0.00, 0.00
20, -61029.65, -28819.09, -22839.08, 18596.40, 544.02, -5595.00, 26210.75, 24058.61, 0.00, 0.00, 0.00
21, -61043.86, -28827.02, -22853.36, 18600.18, 547.91, -5593.28, 26211.80, 24058.66, 0.00, 0.00, 0.00
22, -61036.51, -28819.42, -22845.63, 18597.77, 543.68, -5597.75, 26208.09, 24053.29, 0.00, 0.00, 0.00
23, -61031.23, -28823.02, -22846.30, 18597.88, 543.77, -5599.42, 26205.99, 24053.07, 0.00, 0.00, 0.00
24, -61023.73, -28817.52, -22840.15, 18593.72, 540.26, -5603.16, 26201.76, 24049.56, 0.00, 0.00, 0.00
25, -61006.36, -28814.77, -22829.76, 18591.42, 540.55, -5601.39, 26205.65, 24057.38, -0.38, -0.38, 0.85
26, -61003.96, -28816.61, -22830.96, 18595.89, 547.04, -5595.31, 26212.47, 24065.27, 0.00, 0.00, 0.00
27, -61005.93, -28819.69, -22838.50, 18595.02, 548.51, -5594.31, 26215.02, 24070.35, 0.00, 0.00, 0.00
28, -60997.77, -28816.25, -22833.22, 18595.13, 547.42, -5597.01, 26211.22, 24059.62, 0.00, 0.00, 0.00
29, -60999.29, -28820.12, -22836.53, 18595.49, 548.11, -5594.13, 26215.29, 24063.19, 0.00, 0.00, 0.00
30, -60999.96, -28819.20, -22838.32, 18593.83, 544.22, -5599.31, 26210.28, 24053.61, 0.00, 0.00, 0.00
31, -60992.61, -28816.34, -22833.51, 18598.19, 548.80, -5596.23, 26211.80, 24060.60, 0.00, 0.00, 0.00
32, -60987.31, -28816.18, -22831.37, 18595.47, 547.04, -5596.30, 26209.72, 24063.35, 0.00, 0.00, 0.00
33, -60993.48, -28820.03, -22839.08, 18592.47, 544.73, -5597.70, 26206.06, 24058.72, 0.00, 0.00, 0.00
34, -60970.66, -28807.29, -22825.20, 18592.81, 545.52, -5594.02, 26209.07, 24066.77, 0.00, 0.00, 0.00
35, -60970.28, -28814.24, -22833.71, 18588.40, 541.94, -5596.18, 26205.01, 24061.12, -0.37, -0.37, 0.85
36, -60987.49, -28820.05, -22847.91, 18582.14, 535.41, -5603.45, 26196.45, 24047.17, 0.00, 0.00, 0.00
37, -60989.91, -28819.76, -22847.86, 18582.68, 533.33, -5605.33, 26193.61, 24038.61, 0.00, 0.00, 0.00
38, -60974.28, -28810.37, -22833.20, 18578.10, 527.32, -5610.33, 26187.28, 24026.40, 0.00, 0.00, 0.00
39, -60965.81, -28813.77, -22830.88, 18580.74, 529.13, -5609.26, 26193.18, 24035.46, 0.00, 0.00, 0.00
40, -60969.43, -28815.69, -22837.65, 18587.96, 534.39, -5607.52, 26196.33, 24036.48, 0.00, 0.00, 0.00
41, -60948.33, -28807.46, -22824.37, 18591.22, 536.58, -5606.00, 26201.27, 24037.60, 0.00, 0.00, 0.00
42, -60959.35, -28819.33, -22837.71, 18592.00, 536.69, -5607.38, 26200.00, 24035.41, 0.00, 0.00, 0.00
43, -60970.86, -28821.59, -22843.77, 18592.09, 537.07, -5608.92, 26197.27, 24034.09, 0.00, 0.00, 0.00
44, -60942.79, -28805.01, -22822.05, 18597.23, 545.63, -5598.98, 26210.64, 24062.68, 0.00, 0.00, 0.00
45, -60945.40, -28816.81, -22831.57, 18595.85, 544.13, -5601.57, 26208.80, 24057.36, 0.00, 0.00, 0.00
46, -60927.77, -28806.77, -22817.15, 18595.38, 543.62, -5602.24, 26207.62, 24057.03, -0.37, -0.38, 0.84
47, -60920.48, -28811.91, -22819.59, 18593.21, 541.85, -5607.45, 26197.88, 24046.03, 0.00, 0.00, 0.00
48, -60922.83, -28813.07, -22825.20, 18589.72, 540.15, -5610.27, 26196.49, 24048.82, 0.00, 0.00, 0.00
49, -60920.46, -28813.21, -22827.17, 18595.49, 545.65, -5604.95, 26202.70, 24059.17, 0.00, 0.00, 0.00
50, -60931.17, -28818.53, -22834.38, 18599.09, 549.20, -5601.03, 26205.01, 24061.18, 0.00, 0.00, 0.00
51, -60919.77, -28812.65, -22824.73, 18597.86, 548.27, -5601.44, 26203.75, 24053.56, 0.00, 0.00, 0.00
52, -60926.99, -28819.20, -22835.48, 18600.56, 553.30, -5598.42, 26202.99, 24055.39, 0.00, 0.00, 0.00
53, -60922.11, -28814.84, -22833.94, 18601.21, 555.64, -5596.52, 26203.24, 24058.28, 0.00, 0.00, 0.00
54, -60928.02, -28817.43, -22839.21, 18598.55, 554.12, -5594.95, 26203.15, 24055.06, 0.00, 0.00, 0.00
55, -60907.59, -28807.84, -22824.48, 18597.46, 552.62, -5594.17, 26204.25, 24050.88, 0.00, 0.00, 0.00
56, -60920.59, -28818.82, -22840.11, 18599.31, 553.59, -5592.29, 26207.08, 24063.08, -0.37, -0.38, 0.85
57, -60929.02, -28820.36, -22844.69, 18600.25, 552.56, -5594.35, 26206.82, 24062.61, 0.00, 0.00, 0.00
58, -60924.57, -28817.83, -22838.59, 18601.70, 551.26, -5596.00, 26206.39, 24056.27, 0.00, 0.00, 0.00
59, -60915.00, -28813.43, -22831.50, 18598.17, 547.08, -5599.49, 26205.88, 24052.87, 0.00, 0.00, 0.00
60, -60913.44, -28812.45, -22831.23, 18596.49, 546.16, -5599.65, 26205.50, 24053.79, 0.00, 0.00, 0.00
61, -60904.99, -28811.00, -22828.69, 18595.22, 544.87, -5601.10, 26203.62, 24050.65, 0.00, 0.00, 0.00
62, -60914.11, -28818.95, -22840.55, 18596.05, 546.68, -5599.13, 26209.83, 24057.40, 0.00, 0.00, 0.00
63, -60917.58, -28817.86, -22840.71, 18594.75, 545.32, -5600.54, 26210.41, 24050.70, 0.00, 0.00, 0.00
64, -60907.74, -28814.95, -22836.04, 18588.87, 539.66, -5605.59, 26206.53, 24044.31, 0.00, 0.00, 0.00
65, -60908.03, -28817.03, -22839.08, 18587.46, 538.21, -5608.25, 26203.64, 24042.23, 0.00, 0.00, 0.00
66, -60900.03, -28810.88, -22833.63, 18591.38, 541.94, -5603.11, 26210.53, 24051.59, -0.38, -0.38, 0.85
67, -60888.77, -28805.79, -22830.56, 18593.32, 544.91, -5598.24, 26212.85, 24053.02, 0.00, 0.00, 0.00
68, -60888.41, -28809.50, -22833.74, 18591.35, 542.99, -5600.61, 26210.21, 24050.54, 0.00, 0.00, 0.00
69, -60892.21, -28813.48, -22835.86, 18592.22, 541.45, -5605.24, 26204.31, 24045.45, 0.00, 0.00, 0.00
70, -60894.11, -28813.45, -22836.49, 18590.50, 539.48, -5608.03, 26200.56, 24042.23, 0.00, 0.00, 0.00
71, -60887.74, -28809.03, -22829.94, 18589.56, 538.36, -5606.69, 26202.86, 24044.31, 0.00, 0.00, 0.00
72, -60881.32, -28809.92, -22829.27, 18587.17, 535.01, -5609.59, 26200.78, 24042.03, 0.00, 0.00, 0.00
73, -60907.16, -28821.79, -22850.79, 18590.46, 540.53, -5606.29, 26204.96, 24052.35, 0.00, 0.00, 0.00
74, -60907.74, -28817.61, -22847.55, 18601.81, 555.24, -5593.28, 26215.60, 24065.74, 0.00, 0.00, 0.00
75, -60878.13, -28800.11, -22823.41, 18606.57, 561.52, -5587.00, 26220.81, 24065.21, 0.00, 0.00, 0.00
76, -60856.85, -28800.98, -22817.40, 18604.83, 558.30, -5592.50, 26213.43, 24054.75, -0.38, -0.38, 0.85
77, -60877.41, -28814.93, -22838.45, 18600.52, 551.55, -5599.83, 26205.50, 24049.04, 0.00, 0.00, 0.00
78, -60897.95, -28822.42, -22850.52, 18606.44, 557.39, -5594.62, 26210.82, 24055.62, 0.00, 0.00, 0.00
79, -60902.96, -28819.67, -22848.33, 18608.38, 557.41, -5592.05, 26216.67, 24060.18, 0.00, 0.00, 0.00
80, -60889.10, -28812.11, -22838.05, 18601.10, 549.45, -5596.85, 26214.82, 24050.95, 0.00, 0.00, 0.00
81, -60876.79, -28809.36, -22831.32, 18597.75, 545.56, -5601.91, 26209.79, 24044.55, 0.00, 0.00, 0.00
82, -60893.39, -28818.21, -22844.38, 18596.20, 544.78, -5602.46, 26207.82, 24046.63, 0.00, 0.00, 0.00
83, -60881.03, -28810.03, -22834.41, 18598.39, 546.37, -5600.43, 26207.84, 24050.10, 0.00, 0.00, 0.00
84, -60895.02, -28821.21, -22849.43, 18598.80, 545.45, -5601.84, 26204.58, 24046.99, 0.00, 0.00, 0.00
85, -60880.67, -28813.12, -22834.92, 18600.00, 546.14, -5603.07, 26203.35, 24043.28, 0.00, 0.00, 0.00
86, -60882.57, -28818.64, -22840.55, 18603.07, 548.53, -5603.94, 26202.81, 24041.27, -0.37, -0.38, 0.85
87, -60876.92, -28814.77, -22836.87, 18598.24, 543.01, -5609.42, 26196.00, 24039.19, 0.00, 0.00, 0.00
88, -60878.95, -28817.07, -22839.68, 18596.16, 541.69, -5610.40, 26195.60, 24039.70, 0.00, 0.00, 0.00
89, -60874.91, -28812.02, -22837.02, 18601.14, 547.73, -5604.01, 26202.03, 24050.39, 0.00, 0.00, 0.00
90, -60863.80, -28809.88, -22832.91, 18602.87, 548.60, -5603.83, 26201.81, 24049.67, 0.00, 0.00, 0.00
91, -60859.42, -28810.21, -22831.90, 18599.91, 544.62, -5606.09, 26199.46, 24050.65, 0.00, 0.00, 0.00
92, -60859.24, -28811.64, -22834.68, 18601.12, 545.72, -5605.28, 26198.57, 24052.09, 0.00, 0.00, 0.00
93, -60867.08, -28814.01, -22838.59, 18599.11, 546.10, -5605.86, 26196.42, 24050.34, 0.00, 0.00, 0.00
94, -60856.55, -28809.88, -22829.13, 18596.96, 544.62, -5607.85, 26197.18, 24049.36, 0.00, 0.00, 0.00
95, -60854.50, -28813.01, -22830.90, 18595.82, 543.95, -5607.16, 26202.48, 24052.44, 0.00, 0.00, 0.00
96, -60843.48, -28809.12, -22826.70, 18593.14, 541.96, -5607.25, 26204.18, 24053.52, 0.00, 0.00, 0.00
97, -60854.90, -28816.99, -22837.13, 18587.84, 537.29, -5611.34, 26201.00, 24043.39, -0.38, -0.38, 0.85
98, -60853.23, -28816.61, -22834.23, 18592.94, 541.87, -5608.25, 26202.35, 24051.91, 0.00, 0.00, 0.00
99, -60854.01, -28816.83, -22833.36, 18597.75, 545.20, -5604.32, 26211.00, 24059.17, 0.00, 0.00, 0.00
100, -60853.05, -28814.97, -22832.02, 18593.81, 540.51, -5607.58, 26205.99, 24052.22, 0.00, 0.00, 0.00
101, -60837.91, -28808.76, -22824.08, 18589.92, 536.53, -5611.87, 26199.44, 24040.71, 0.00, 0.00, 0.00
102, -60832.26, -28808.07, -22822.92, 18585.01, 532.15, -5617.89, 26192.69, 24028.95, 0.00, 0.00, 0.00
103, -60837.36, -28812.83, -22830.67, 18587.64, 535.84, -5614.47, 26195.10, 24032.06, 0.00, 0.00, 0.00
104, -60834.05, -28811.17, -22830.23, 18591.91, 540.53, -5609.33, 26195.80, 24031.01, 0.00, 0.00, 0.00
105, -60854.34, -28823.65, -22847.30, 18590.82, 540.24, -5609.10, 26195.82, 24039.63, 0.00, 0.00, 0.00
106, -60848.46, -28812.13, -22837.31, 18588.31, 537.63, -5613.22, 26191.28, 24037.36, 0.00, 0.00, 0.00
107, -60837.76, -28811.78, -22832.20, 18582.93, 532.49, -5618.87, 26183.23, 24031.95, -0.38, -0.38, 0.85
108, -60845.83, -28814.86, -22838.50, 18580.02, 529.02, -5621.22, 26179.05, 24028.59, 0.00, 0.00, 0.00
109, -60835.19, -28808.96, -22828.28, 18579.93, 529.13, -5618.83, 26183.79, 24036.01, 0.00, 0.00, 0.00
110, -60809.08, -28796.53, -22809.91, 18578.39, 526.52, -5622.29, 26181.13, 24032.88, 0.00, 0.00, 0.00
111, -60799.07, -28799.64, -22810.65, 18582.66, 531.66, -5617.93, 26187.10, 24038.70, 0.00, 0.00, 0.00
112, -60801.46, -28805.41, -22817.49, 18583.15, 532.93, -5614.89, 26194.37, 24043.57, 0.00, 0.00, 0.00
113, -60800.70, -28806.86, -22821.20, 18579.06, 528.53, -5617.37, 26196.29, 24047.10, 0.00, 0.00, 0.00
114, -60790.80, -28799.86, -22815.10, 18580.24, 528.89, -5618.31, 26197.27, 24047.88, 0.00, 0.00, 0.00
115, -60791.80, -28803.73, -22819.74, 18583.53, 531.30, -5617.62, 26201.00, 24047.91, 0.00, 0.00, 0.00
116, -60796.27, -28805.97, -22825.06, 18582.75, 530.81, -5619.27, 26199.42, 24044.35, 0.00, 0.00, 0.00
117, -60779.09, -28796.53, -22814.04, 18586.84, 532.66, -5616.97, 26201.45, 24045.31, -0.38, -0.38, 0.85
118, -60770.97, -28796.67, -22810.65, 18588.00, 534.90, -5615.41, 26204.94, 24052.33, 0.00, 0.00, 0.00
119, -60780.34, -28804.29, -22821.67, 18582.03, 530.54, -5621.89, 26196.49, 24039.99, 0.00, 0.00, 0.00
120, -60767.51, -28797.36, -22815.45, 18577.79, 528.28, -5622.20, 26198.79, 24041.92, 0.00, 0.00, 0.00
121, -60773.18, -28804.00, -22823.99, 18580.02, 531.88, -5618.29, 26202.30, 24047.62, 0.00, 0.00, 0.00
122, -60762.07, -28795.62, -22812.99, 18584.94, 538.36, -5612.46, 26207.22, 24051.57, 0.00, 0.00, 0.00
123, -60774.30, -28807.46, -22824.51, 18586.01, 540.11, -5613.46, 26203.80, 24044.53, 0.00, 0.00, 0.00
124, -60770.41, -28800.38, -22817.04, 18584.56, 537.87, -5614.96, 26202.17, 24044.58, 0.00, 0.00, 0.00
125, -60774.26, -28807.04, -22824.30, 18581.79, 534.92, -5614.76, 26201.72, 24048.71, 0.00, 0.00, 0.00
126, -60795.18, -28814.35, -22840.93, 18586.39, 538.43, -5612.10, 26201.90, 24051.97, 0.00, 0.00, 0.00
127, -60777.43, -28800.13, -22822.81, 18584.87, 535.39, -5618.13, 26192.73, 24046.54, -0.37, -0.38, 0.85
128, -60764.24, -28800.42, -22816.64, 18588.20, 536.58, -5619.54, 26192.18, 24041.20, 0.00, 0.00, 0.00
129, -60767.84, -28806.23, -22825.91, 18591.49, 538.77, -5617.69, 26192.78, 24038.29, 0.00, 0.00, 0.00
130, -60796.83, -28820.38, -22849.16, 18584.65, 532.82, -5622.67, 26189.65, 24037.80, 0.00, 0.00, 0.00
131, -60802.60, -28816.22, -22846.95, 18582.21, 532.73, -5622.60, 26194.03, 24048.35, 0.00, 0.00, 0.00
132, -60796.90, -28814.50, -22841.74, 18583.66, 534.30, -5620.90, 26194.81, 24050.19, 0.00, 0.00, 0.00
133, -60780.20, -28805.94, -22826.90, 18587.49, 537.07, -5617.08, 26197.50, 24048.87, 0.00, 0.00, 0.00
134, -60786.64, -28815.69, -22834.47, 18583.42, 533.67, -5619.50, 26195.15, 24043.41, 0.00, 0.00, 0.00
135, -60778.23, -28805.94, -22826.18, 18579.84, 530.47, -5620.46, 26192.47, 24039.84, 0.00, 0.00, 0.00
136, -60761.20, -28803.04, -22820.37, 18577.72, 530.14, -5619.61, 26196.33, 24040.26, 0.00, 0.00, 0.00
137, -60762.70, -28807.15, -22827.75, 18577.32, 531.17, -5615.23, 26203.42, 24049.16, -0.38, -0.38, 0.85
138, -60751.97, -28803.51, -22821.22, 18575.44, 529.33, -5615.29, 26205.83, 24045.89, 0.00, 0.00, 0.00
139, -60758.23, -28810.41, -22827.37, 18579.91, 532.58, -5612.12, 26211.55, 24048.40, 0.00, 0.00, 0.00
140, -60769.21, -28813.61, -22836.60, 18577.85, 529.94, -5615.56, 26209.30, 24041.87, 0.00, 0.00, 0.00
141, -60765.41, -28810.77, -22833.11, 18578.14, 529.92, -5615.92, 26207.15, 24042.79, 0.00, 0.00, 0.00
142, -60774.48, -28813.43, -22839.32, 18584.87, 536.75, -5609.33, 26215.00, 24059.28, 0.00, 0.00, 0.00
143, -60754.61, -28802.39, -22823.86, 18579.69, 531.59, -5616.26, 26209.79, 24053.56, 0.00, 0.00, 0.00
144, -60745.87, -28803.20, -22821.64, 18578.28, 531.35, -5618.49, 26206.68, 24047.73, 0.00, 0.00, 0.00
145, -60766.48, -28813.72, -22839.84, 18579.17, 533.69, -5616.90, 26208.34, 24046.41, 0.00, 0.00, 0.00
146, -60773.54, -28811.49, -22839.62, 18576.40, 530.36, -5618.98, 26205.83, 24045.51, 0.00, 0.00, 0.00
147, -60764.91, -28808.65, -22832.55, 18580.15, 532.84, -5616.41, 26203.53, 24043.59, 0.00, 0.00, 0.00
148, -60765.92, -28809.65, -22835.08, 18578.90, 531.44, -5620.03, 26199.15, 24040.96, -0.38, -0.38, 0.85
149, -60773.07, -28814.39, -22841.69, 18584.67, 534.32, -5620.44, 26199.93, 24038.83, 0.00, 0.00, 0.00
150, -60780.96, -28816.52, -22845.25, 18584.92, 531.68, -5624.86, 26194.41, 24035.01, 0.00, 0.00, 0.00
151, -60772.91, -28812.52, -22839.28, 18579.19, 526.12, -5627.70, 26191.30, 24035.79, 0.00, 0.00, 0.00
152, -60788.00, -28820.67, -22852.11, 18577.65, 527.23, -5628.19, 26190.86, 24026.36, 0.00, 0.00, 0.00
153, -60783.04, -28817.03, -22845.87, 18579.53, 530.47, -5625.26, 26192.51, 24037.69, 0.00, 0.00, 0.00
154, -60777.09, -28815.06, -22841.85, 18581.18, 529.87, -5625.46, 26191.42, 24035.81, 0.00, 0.00, 0.00
155, -60770.61, -28812.78, -22838.61, 18580.02, 527.79, -5627.77, 26189.96, 24028.77, 0.00, 0.00, 0.00
156, -60770.75, -28813.57, -22840.96, 18581.05, 531.77, -5623.01, 26200.89, 24046.74, 0.00, 0.00, 0.00
157, -60749.11, -28802.75, -22824.68, 18580.20, 532.60, -5622.49, 26200.67, 24044.35, 0.00, 0.00, 0.00
158, -60741.36, -28806.62, -22824.71, 18581.25, 534.30, -5618.20, 26203.42, 24047.30, -0.38, -0.38, 0.84
159, -60752.98, -28813.72, -22835.48, 18574.77, 527.19, -5623.16, 26199.84, 24039.77, 0.00, 0.00, 0.00
160, -60743.32, -28809.10, -22828.57, 18573.67, 525.65, -5624.41, 26199.55, 24042.00, 0.00, 0.00, 0.00
161, -60749.78, -28816.38, -22837.11, 18578.21, 530.27, -5621.53, 26200.76, 24047.32, 0.00, 0.00, 0.00
162, -60751.95, -28811.98, -22834.92, 18577.83, 529.16, -5622.72, 26202.46, 24044.13, 0.00, 0.00, 0.00
163, -60741.24, -28808.98, -22826.96, 18578.28, 527.64, -5623.74, 26203.42, 24041.83, 0.00, 0.00, 0.00
164, -60744.91, -28812.94, -22829.45, 18579.08, 527.12, -5625.84, 26198.46, 24035.21, 0.00, 0.00, 0.00
165, -60734.45, -28809.16, -22824.68, 18582.93, 531.14, -5622.29, 26202.10, 24043.99, 0.00, 0.00, 0.00
166, -60746.59, -28817.52, -22835.70, 18579.89, 529.20, -5625.13, 26197.54, 24036.15, 0.00, 0.00, 0.00
167, -60755.26, -28820.83, -22841.98, 18582.57, 531.90, -5620.79, 26199.80, 24043.39, 0.00, 0.00, 0.00
168, -60739.84, -28809.95, -22830.23, 18583.82, 532.95, -5620.10, 26199.44, 24045.29, -0.38, -0.38, 0.85
169, -60719.81, -28807.93, -22819.21, 18581.99, 530.50, -5625.58, 26192.00, 24034.40, 0.00, 0.00, 0.00
170, -60734.96, -28817.14, -22833.13, 18584.11, 535.23, -5621.22, 26197.45, 24049.09, 0.00, 0.00, 0.00
171, -60722.69, -28809.65, -22826.65, 18581.27, 533.40, -5623.39, 26193.18, 24043.23, 0.00, 0.00, 0.00
172, -60726.98, -28814.26, -22834.07, 18576.45, 528.71, -5626.36, 26192.24, 24045.04, 0.00, 0.00, 0.00
173, -60723.59, -28813.10, -22832.33, 18580.40, 532.15, -5624.73, 26198.39, 24049.52, 0.00, 0.00, 0.00
174, -60719.83, -28809.32, -22827.97, 18578.52, 527.81, -5630.31, 26194.59, 24040.40, 0.00, 0.00, 0.00
175, -60692.52, -28799.60, -22810.33, 18578.54, 526.34, -5631.43, 26195.37, 24033.51, 0.00, 0.00, 0.00
176, -60693.05, -28808.18, -22818.27, 18576.04, 523.14, -5634.36, 26194.57, 24026.25, 0.00, 0.00, 0.00
177, -60705.39, -28816.56, -22831.61, 18577.54, 526.45, -5632.44, 26198.23, 24035.41, 0.00, 0.00, 0.00
178, -60701.32, -28810.71, -22829.98, 18578.12, 526.85, -5633.02, 26197.41, 24033.71, -0.38, -0.38, 0.85
179, -60710.73, -28818.75, -22841.00, 18582.66, 531.64, -5628.35, 26201.72, 24034.34, 0.00, 0.00, 0.00
180, -60734.31, -28826.91, -22857.94, 18579.64, 531.03, -5626.56, 26205.27, 24029.96, 0.00, 0.00, 0.00
181, -60734.29, -28819.49, -22853.32, 18573.65, 527.48, -5629.26, 26201.52, 24034.49, 0.00, 0.00, 0.00
182, -60720.21, -28813.72, -22841.00, 18573.96, 527.37, -5632.73, 26194.84, 24029.31, 0.00, 0.00, 0.00
183, -60709.70, -28810.79, -22834.65, 18573.03, 525.13, -5636.17, 26188.55, 24025.51, 0.00, 0.00, 0.00
184, -60699.82, -28811.96, -22830.43, 18575.37, 527.21, -5632.64, 26191.06, 24028.97, 0.00, 0.00, 0.00
185, -60706.38, -28814.79, -22837.49, 18578.54, 530.07, -5629.51, 26198.32, 24035.03, 0.00, 0.00, 0.00
186, -60700.65, -28812.40, -22835.01, 18581.72, 529.31, -5633.35, 26196.45, 24030.18, 0.00, 0.00, 0.00
187, -60716.23, -28822.33, -22848.27, 18580.69, 528.24, -5633.94, 26191.01, 24027.74, 0.00, 0.00, 0.00
188, -60711.07, -28814.33, -22841.34, 18583.60, 531.10, -5629.64, 26189.34, 24033.78, -0.38, -0.38, 0.85
189, -60701.28, -28810.86, -22835.28, 18584.49, 532.60, -5626.74, 26193.00, 24041.69, 0.00, 0.00, 0.00
190, -60696.61, -28810.73, -22834.68, 18581.34, 530.61, -5629.29, 26190.07, 24036.35, 0.00, 0.00, 0.00
191, -60715.76, -28824.56, -22850.72, 18580.27, 531.86, -5628.19, 26191.46, 24034.96, 0.00, 0.00, 0.00
192, -60695.15, -28809.72, -22832.51, 18578.41, 531.26, -5627.05, 26194.41, 24036.26, 0.00, 0.00, 0.00
193, -60662.14, -28799.30, -22812.55, 18575.24, 527.05, -5631.43, 26192.35, 24032.80, 0.00, 0.00, 0.00
194, -60675.93, -28817.54, -22833.13, 18578.19, 529.07, -5632.62, 26192.35, 24034.12, 0.00, 0.00, 0.00
195, -60701.66, -28823.89, -22850.70, 18581.36, 533.22, -5628.55, 26194.61, 24038.27, 0.00, 0.00, 0.00
196, -60680.71, -28809.86, -22832.62, 18578.50, 530.83, -5626.87, 26195.93, 24040.71, 0.00, 0.00, 0.00
197, -60684.76, -28815.29, -22839.66, 18575.17, 522.72, -5637.18, 26181.85, 24022.27, 0.00, 0.00, 0.00
198, -60686.55, -28815.60, -22840.67, 18574.14, 521.80, -5639.73, 26177.49, 24026.29, 0.00, 0.00, 0.00
199, -60680.96, -28813.45, -22836.46, 18573.56, 520.55, -5641.45, 26175.72, 24026.94, -0.38, -0.38, 0.85
200, -60675.53, -28813.74, -22836.49, 18574.70, 521.89, -5640.04, 26178.23, 24023.14, 0.00, 0.00, 0.00
201, -60691.82, -28822.17, -22848.64, 18578.84, 526.41, -5634.81, 26183.68, 24026.63, 0.00, 0.00, 0.00
202, -60699.29, -28822.44, -22850.57, 18576.36, 524.42, -5637.18, 26178.36, 24026.16, 0.00, 0.00, 0.00
203, -60709.62, -28827.22, -22857.34, 18575.60, 526.05, -5636.53, 26179.90, 24031.90, 0.00, 0.00, 0.00
204, -60713.75, -28825.48, -22855.57, 18574.61, 525.96, -5636.69, 26181.38, 24030.72, 0.00, 0.00, 0.00
205, -60719.18, -28824.99, -22856.87, 18569.47, 520.71, -5640.73, 26178.47, 24022.40, 0.00, 0.00, 0.00
206, -60720.39, -28821.54, -22855.04, 18570.05, 520.86, -5640.13, 26182.86, 24023.86, 0.00, 0.00, 0.00
207, -60717.02, -28821.66, -22851.91, 18572.82, 524.33, -5638.03, 26182.81, 24022.18, 0.00, 0.00, 0.00
208, -60721.62, -28827.96, -22855.89, 18574.79, 526.00, -5635.79, 26182.86, 24017.98, 0.00, 0.00, 0.00
209, -60714.91, -28823.69, -22850.95, 18578.54, 528.33, -5630.56, 26190.21, 24029.85, -0.38, -0.38, 0.85
210, -60706.49, -28821.95, -22844.00, 18579.02, 528.73, -5629.49, 26194.41, 24038.47, 0.00, 0.00, 0.00
211, -60713.97, -28828.59, -22853.45, 18579.28, 528.82, -5633.22, 26188.31, 24031.86, 0.00, 0.00, 0.00
212, -60720.12, -28827.98, -22856.20, 18581.43, 528.22, -5635.68, 26183.64, 24027.30, 0.00, 0.00, 0.00
213, -60711.96, -28824.21, -22849.76, 18585.54, 530.76, -5634.14, 26185.98, 24025.60, 0.00, 0.00, 0.00
214, -60690.39, -28815.78, -22834.74, 18591.13, 536.69, -5627.48, 26194.86, 24042.45, 0.00, 0.00, 0.00
215, -60688.92, -28823.06, -22837.65, 18586.44, 531.93, -5634.70, 26185.94, 24033.78, 0.00, 0.00, 0.00
216, -60721.55, -28839.29, -22863.87, 18582.61, 527.08, -5640.06, 26180.29, 24021.71, 0.00, 0.00, 0.00
217, -60718.55, -28827.24, -22855.60, 18583.20, 526.85, -5639.03, 26180.71, 24022.27, 0.00, 0.00, 0.00
218, -60699.45, -28819.91, -22841.72, 18580.54, 523.12, -5641.80, 26174.47, 24023.65, 0.00, 0.00, 0.00
219, -60705.12, -28826.48, -22850.75, 18579.08, 521.11, -5644.73, 26173.24, 24019.65, -0.38, -0.38, 0.85
220, -60695.58, -28820.83, -22842.99, 18585.79, 529.42, -5637.33, 26184.69, 24028.84, 0.00, 0.00, 0.00
221, -60683.57, -28820.12, -22838.81, 18579.57, 525.58, -5640.62, 26181.40, 24022.31, 0.00, 0.00, 0.00
222, -60692.98, -28826.69, -22850.84, 18574.12, 518.85, -5647.08, 26172.21, 24010.82, 0.00, 0.00, 0.00
223, -60690.21, -28824.34, -22848.64, 18578.48, 525.36, -5639.48, 26178.47, 24027.54, 0.00, 0.00, 0.00
224, -60686.13, -28823.82, -22845.36, 18581.85, 529.89, -5635.68, 26184.13, 24030.87, 0.00, 0.00, 0.00
225, -60683.20, -28821.99, -22843.24, 18577.94, 525.62, -5638.99, 26181.69, 24024.39, 0.00, 0.00, 0.00
226, -60703.83, -28834.35, -22859.82, 18575.55, 522.09, -5643.61, 26174.90, 24012.34, 0.00, 0.00, 0.00
227, -60687.29, -28820.47, -22843.28, 18575.46, 520.51, -5646.25, 26170.38, 24009.46, 0.00, 0.00, 0.00
228, -60673.63, -28818.64, -22838.65, 18576.67, 522.29, -5644.26, 26174.92, 24021.55, 0.00, 0.00, 0.00
229, -60683.20, -28826.73, -22848.67, 18574.41, 520.48, -5644.15, 26174.36, 24015.21, -0.38, -0.38, 0.85
230, -60682.88, -28825.55, -22847.75, 18574.81, 521.67, -5641.31, 26176.19, 24014.67, 0.00, 0.00, 0.00
231, -60678.52, -28824.14, -22845.83, 18575.17, 523.57, -5641.31, 26177.04, 24016.14, 0.00, 0.00, 0.00
232, -60685.86, -28829.97, -22854.19, 18578.12, 528.15, -5636.53, 26184.33, 24026.31, 0.00, 0.00, 0.00
233, -60689.86, -28825.39, -22854.32, 18581.52, 531.17, -5630.72, 26189.65, 24037.98, 0.00, 0.00, 0.00
234, -60673.09, -28819.13, -22842.25, 18577.74, 527.55, -5631.79, 26191.37, 24029.31, 0.00, 0.00, 0.00
235, -60681.39, -28829.81, -22852.47, 18574.48, 524.33, -5634.99, 26186.25, 24022.27, 0.00, 0.00, 0.00
236, -60701.26, -28838.09, -22866.26, 18576.53, 527.57, -5633.98, 26187.26, 24028.66, 0.00, 0.00, 0.00
237, -60720.68, -28840.37, -22876.45, 18576.13, 526.96, -5634.00, 26188.20, 24027.65, 0.00, 0.00, 0.00
238, -60713.93, -28833.93, -22866.53, 18576.78, 526.92, -5631.77, 26190.41, 24034.16, 0.00, 0.00, 0.00
239, -60717.57, -28834.42, -22866.93, 18576.18, 526.03, -5635.12, 26185.38, 24027.19, -0.39, -0.38, 0.85
240, -60706.62, -28829.10, -22856.63, 18572.06, 520.33, -5642.79, 26182.36, 24023.10, 0.00, 0.00, 0.00
241, -60713.41, -28832.27, -22862.19, 18571.88, 519.03, -5644.87, 26180.78, 24024.97, 0.00, 0.00, 0.00
242, -60699.98, -28824.61, -22850.01, 18576.76, 523.88, -5639.08, 26184.15, 24035.75, 0.00, 0.00, 0.00
243, -60717.93, -28835.63, -22862.50, 18576.60, 523.54, -5639.97, 26181.29, 24033.51, 0.00, 0.00, 0.00
244, -60706.38, -28824.41, -22847.68, 18577.05, 524.37, -5641.16, 26178.32, 24024.84, 0.00, 0.00, 0.00
245, -60720.19, -28835.87, -22862.44, 18578.21, 525.13, -5641.74, 26179.64, 24019.03, 0.00, 0.00, 0.00
246, -60706.33, -28821.10, -22846.68, 18578.23, 524.91, -5640.55, 26175.79, 24022.65, 0.00, 0.00, 0.00
247, -60669.00, -28813.39, -22825.09, 18574.90, 524.62, -5638.23, 26180.62, 24028.77, 0.00, 0.00, 0.00
248, -60677.03, -28824.14, -22838.25, 18571.13, 523.41, -5639.59, 26181.54, 24027.07, 0.00, 0.00, 0.00
249, -60682.88, -28828.12, -22844.42, 18566.10, 519.05, -5644.49, 26175.05, 24022.76, -0.39, -0.38, 0.85
250, -60685.83, -28829.57, -22847.42, 18565.72, 517.98, -5643.73, 26173.15, 24027.61, 0.00, 0.00, 0.00
251, -60683.84, -28829.53, -22844.46, 18562.68, 514.89, -5646.92, 26166.38, 24022.78, 0.00, 0.00, 0.00
252, -60699.22, -28836.41, -22854.19, 18561.25, 514.89, -5646.48, 26171.39, 24024.35, 0.00, 0.00, 0.00
253, -60698.30, -28832.41, -22850.54, 18562.59, 514.49, -5648.15, 26171.01, 24024.08, 0.00, 0.00, 0.00
254, -60692.90, -28828.99, -22847.10, 18562.74, 514.27, -5647.86, 26169.58, 24020.61, 0.00, 0.00, 0.00
255, -60665.72, -28815.44, -22828.19, 18565.36, 516.75, -5643.73, 26172.86, 24031.03, 0.00, 0.00, 0.00
0, -60658.09, -28819.38, -22828.71, 18567.06, 517.40, -5645.83, 26168.75, 24023.86, 0.00, 0.00, 0.00
1, -60683.06, -28831.74, -22850.28, 18567.66, 518.76, -5648.02, 26167.43, 24018.74, 0.00, 0.00, 0.00
2, -60692.72, -28832.27, -22853.25, 18569.90, 520.77, -5644.35, 26175.88, 24022.13, 0.00, 0.00, 0.00
3, -60689.12, -28830.96, -22850.23, 18572.60, 523.05, -5641.27, 26182.01, 24024.08, 0.00, 0.00, 0.00
4, -60699.22, -28835.87, -22859.29, 18570.97, 521.44, -5643.66, 26178.90, 24021.26, -0.38, -0.37, 0.85
5, -60706.35, -28836.41, -22861.07, 18571.33, 522.63, -5643.97, 26179.26, 24021.55, 0.00, 0.00, 0.00
6, -60673.25, -28817.86, -22834.79, 18571.53, 523.68, -5642.16, 26181.02, 24031.39, 0.00, 0.00, 0.00
7, -60652.80, -28820.27, -22829.78, 18571.46, 522.58, -5641.60, 26178.21, 24029.09, 0.00, 0.00, 0.00
8, -60676.13, -28837.24, -22857.27, 18566.39, 517.22, -5646.85, 26175.12, 24024.84, 0.00, 0.00, 0.00
9, -60705.21, -28842.94, -22874.04, 18568.29, 518.69, -5647.64, 26175.19, 24023.47, 0.00, 0.00, 0.00
10, -60697.64, -28832.50, -22859.49, 18568.17, 518.43, -5648.29, 26176.28, 24025.20, 0.00, 0.00, 0.00
11, -60698.11, -28833.91, -22856.47, 18570.83, 520.95, -5643.30, 26183.55, 24032.75, 0.00, 0.00, 0.00
12, -60692.79, -28832.12, -22850.57, 18568.98, 519.14, -5645.42, 26180.20, 24028.04, 0.00, 0.00, 0.00
13, -60683.89, -28830.13, -22846.61, 18563.48, 512.17, -5653.49, 26175.81, 24017.35, 0.00, 0.00, 0.00
14, -60691.91, -28835.85, -22854.41, 18563.88, 512.37, -5653.25, 26175.66, 24018.80, -0.38, -0.38, 0.85
15, -60682.44, -28829.01, -22845.70, 18565.49, 513.64, -5651.46, 26175.70, 24015.18, 0.00, 0.00, 0.00
16, -60690.04, -28837.28, -22857.03, 18567.15, 515.63, -5646.52, 26178.18, 24022.34, 0.00, 0.00, 0.00
17, -60689.14, -28831.83, -22852.00, 18565.49, 514.02, -5646.23, 26180.02, 24024.50, 0.00, 0.00, 0.00
18, -60687.27, -28836.79, -22852.24, 18558.72, 509.64, -5648.98, 26177.74, 24017.75, 0.00, 0.00, 0.00
19, -60693.21, -28840.21, -22858.35, 18560.98, 511.77, -5645.33, 26182.01, 24019.59, 0.00, 0.00, 0.00
20, -60710.71, -28846.76, -22869.34, 18563.84, 514.18, -5642.79, 26183.23, 24019.61, 0.00, 0.00, 0.00
21, -60698.42, -28834.80, -22853.56, 18558.43, 509.44, -5647.97, 26175.81, 24016.03, 0.00, 0.00, 0.00
22, -60690.71, -28836.14, -22848.94, 18552.69, 503.34, -5656.42, 26165.69, 24009.86, 0.00, 0.00, 0.00
23, -60685.03, -28832.72, -22845.81, 18555.21, 504.90, -5658.23, 26161.84, 24004.48, 0.00, 0.00, 0.00
24, -60680.38, -28833.66, -22849.27, 18552.69, 499.76, -5663.55, 26155.92, 24000.63, -0.38, -0.38, 0.85
25, -60693.07, -28840.21, -22859.15, 18553.96, 497.80, -5667.33, 26151.96, 24001.50, 0.00, 0.00, 0.00
26, -60679.08, -28830.89, -22845.70, 18559.23, 501.30, -5667.02, 26152.70, 24007.31, 0.00, 0.00, 0.00
27, -60676.07, -28831.87, -22845.90, 18570.63, 512.06, -5658.03, 26162.29, 24011.12, 0.00, 0.00, 0.00
28, -60659.44, -28822.69, -22833.07, 18572.60, 514.13, -5654.77, 26166.16, 24009.21, 0.00, 0.00, 0.00
29, -60670.52, -28834.31, -22847.26, 18571.55, 515.68, -5654.21, 26165.31, 24009.60, 0.00, 0.00, 0.00
30, -60706.42, -28851.18, -22872.29, 18576.18, 523.57, -5647.82, 26173.20, 24012.34, 0.00, 0.00, 0.00
31, -60720.12, -28848.26, -22871.69, 18572.53, 521.51, -5648.33, 26171.68, 24018.11, 0.00, 0.00, 0.00
32, -60684.70, -28828.07, -22839.82, 18569.65, 519.25, -5649.11, 26170.16, 24015.52, 0.00, 0.00, 0.00
33, -60672.94, -28831.80, -22840.51, 18572.09, 521.38, -5649.27, 26172.75, 24014.74, 0.00, 0.00, 0.00
34, -60681.00, -28834.93, -22847.68, 18570.41, 518.29, -5655.35, 26164.68, 24006.94, -0.37, -0.38, 0.85
35, -60665.98, -28826.57, -22836.42, 18568.58, 516.01, -5658.03, 26165.02, 24001.17, 0.00, 0.00, 0.00
36, -60651.32, -28825.61, -22832.44, 18567.53, 514.67, -5657.38, 26166.83, 24005.19, 0.00, 0.00, 0.00
37, -60674.23, -28839.83, -22856.00, 18568.15, 514.11, -5657.99, 26167.37, 24006.71, 0.00, 0.00, 0.00
38, -60679.04, -28839.43, -22859.44, 18563.30, 508.86, -5664.29, 26159.32, 23999.87, 0.00, 0.00, 0.00
39, -60667.97, -28834.13, -22850.32, 18563.86, 511.50, -5662.55, 26162.04, 24000.61, 0.00, 0.00, 0.00
40, -60669.70, -28831.69, -22848.89, 18567.68, 515.07, -5658.08, 26165.20, 23998.93, 0.00, 0.00, 0.00
41, -60654.16, -28823.38, -22835.61, 18567.86, 517.20, -5654.86, 26167.10, 24003.45, 0.00, 0.00, 0.00
42, -60643.32, -28822.75, -22832.48, 18568.00, 517.22, -5654.79, 26168.26, 24004.37, 0.00, 0.00, 0.00
43, -60658.30, -28837.04, -22848.87, 18568.11, 517.64, -5654.21, 26170.74, 24009.21, 0.00, 0.00, 0.00
44, -60665.79, -28838.22, -22849.99, 18569.00, 518.78, -5650.16, 26176.62, 24009.68, -0.37, -0.38, 0.85
45, -60669.98, -28843.79, -22854.39, 18569.61, 520.35, -5647.93, 26178.38, 24018.83, 0.00, 0.00, 0.00
46, -60673.74, -28842.06, -22854.68, 18567.46, 518.40, -5653.47, 26174.63, 24012.43, 0.00, 0.00, 0.00
47, -60658.07, -28833.95, -22843.41, 18565.58, 516.10, -5658.14, 26171.30, 24006.26, 0.00, 0.00, 0.00
48, -60668.87, -28843.18, -22856.04, 18563.86, 511.50, -5662.70, 26163.95, 23998.82, 0.00, 0.00, 0.00
49, -60676.07, -28843.63, -22858.44, 18563.57, 509.91, -5661.85, 26165.09, 24001.62, 0.00, 0.00, 0.00
50, -60650.36, -28828.81, -22836.04, 18567.06, 512.59, -5658.10, 26169.82, 24011.47, 0.00, 0.00, 0.00
51, -60629.24, -28821.88, -22823.79, 18561.76, 509.22, -5662.59, 26164.04, 24005.95, 0.00, 0.00, 0.00
52, -60627.88, -28830.08, -22832.33, 18560.91, 509.08, -5660.96, 26165.91, 24005.13, 0.00, 0.00, 0.00
53, -60649.49, -28840.50, -22849.34, 18566.39, 513.46, -5655.48, 26170.12, 24007.90, 0.00, 0.00, 0.00
54, -60647.90, -28835.92, -22844.18, 18566.61, 513.67, -5657.92, 26163.10, 24001.32, 0.00, 0.00, 0.00
55, -60633.78, -28828.32, -22835.28, 18567.68, 514.29, -5661.83, 26154.80, 23988.67, -0.37, -0.38, 0.84
56, -60641.82, -28834.60, -22846.63, 18573.94, 521.04, -5654.90, 26168.82, 24006.42, 0.00, 0.00, 0.00
57, -60637.29, -28828.68, -22841.07, 18577.45, 522.40, -5654.66, 26169.78, 24009.26, 0.00, 0.00, 0.00
58, -60646.70, -28841.91, -22852.87, 18573.72, 516.73, -5664.42, 26160.55, 23995.47, 0.00, 0.00, 0.00
59, -60674.72, -28850.49, -22869.43, 18573.49, 516.39, -5667.33, 26160.93, 23993.63, 0.00, 0.00, 0.00
60, -60680.49, -28847.96, -22866.41, 18569.09, 511.90, -5669.79, 26155.88, 23993.23, 0.00, 0.00, 0.00
61, -60691.27, -28848.05, -22869.61, 18571.15, 511.85, -5668.33, 26157.08, 23993.43, 0.00, 0.00, 0.00
62, -60674.05, -28838.46, -22855.55, 18569.70, 511.61, -5666.37, 26157.44, 23999.47, 0.00, 0.00, 0.00
63, -60674.75, -28841.51, -22859.06, 18566.01, 510.29, -5668.36, 26154.92, 23996.70, 0.00, 0.00, 0.00
64, -60676.85, -28845.57, -22859.51, 18562.65, 509.49, -5667.44, 26157.15, 23994.11, 0.00, 0.00, 0.00
65, -60663.10, -28837.26, -22845.83, 18560.40, 507.23, -5666.66, 26161.64, 23989.68, -0.38, -0.38, 0.85
66, -60640.62, -28832.79, -22835.41, 18561.74, 507.88, -5662.41, 26168.30, 24005.73, 0.00, 0.00, 0.00
67, -60637.75, -28835.25, -22838.70, 18562.47, 507.97, -5664.54, 26165.17, 24003.27, 0.00, 0.00, 0.00
68, -60632.03, -28836.37, -22838.41, 18559.23, 505.26, -5669.01, 26161.42, 23993.84, 0.00, 0.00, 0.00
69, -60624.57, -28831.74, -22836.08, 18553.04, 500.52, -5672.29, 26160.14, 23989.84, 0.00, 0.00, 0.00
70, -60617.64, -28832.68, -22837.18, 18557.76, 503.99, -5667.91, 26165.91, 23997.68, 0.00, 0.00, 0.00
71, -60630.65, -28840.37, -22848.91, 18558.07, 503.23, -5669.50, 26166.36, 24004.95, 0.00, 0.00, 0.00
72, -60643.43, -28843.34, -22855.98, 18555.66, 499.70, -5673.88, 26166.36, 24000.05, 0.00, 0.00, 0.00
73, -60644.37, -28840.01, -22853.29, 18559.64, 502.94, -5670.23, 26169.49, 24003.13, 0.00, 0.00, 0.00
74, -60644.15, -28843.72, -22852.69, 18563.28, 507.21, -5667.22, 26167.32, 24005.68, 0.00, 0.00, 0.00
75, -60657.20, -28850.42, -22862.91, 18560.51, 505.15, -5670.66, 26163.36, 24002.96, -0.37, -0.38, 0.84
76, -60647.86, -28842.22, -22852.87, 18559.35, 505.02, -5671.64, 26165.09, 23998.64, 0.00, 0.00, 0.00
77, -60631.00, -28836.19, -22840.73, 18557.65, 504.23, -5670.62, 26164.68, 24006.67, 0.00, 0.00, 0.00
78, -60643.10, -28844.68, -22851.44, 18560.40, 506.18, -5668.27, 26164.01, 24004.57, 0.00, 0.00, 0.00
79, -60629.71, -28832.56, -22841.38, 18558.96, 505.80, -5669.88, 26158.38, 23998.08, 0.00, 0.00, 0.00
80, -60615.98, -28830.29, -22836.38, 18561.42, 509.08, -5668.36, 26157.22, 23995.13, 0.00, 0.00, 0.00
81, -60616.45, -28834.13, -22839.37, 18567.10, 515.16, -5662.01, 26166.02, 24004.90, 0.00, 0.00, 0.00
82, -60614.00, -28833.06, -22840.40, 18564.84, 513.11, -5662.39, 26164.82, 24002.82, 0.00, 0.00, 0.00
83, -60626.47, -28841.60, -22851.82, 18568.78, 515.90, -5660.62, 26161.51, 23996.97, 0.00, 0.00, 0.00
84, -60652.55, -28849.62, -22863.84, 18567.57, 515.01, -5661.76, 26163.03, 24000.74, 0.00, 0.00, 0.00
85, -60658.83, -28847.74, -22860.07, 18568.89, 517.51, -5661.14, 26161.22, 24000.79, -0.38, -0.38, 0.85
86, -60655.39, -28843.45, -22853.79, 18569.22, 518.40, -5657.38, 26166.18, 24005.95, 0.00, 0.00, 0.00
87, -60661.52, -28849.55, -22860.96, 18569.83, 516.91, -5659.51, 26158.16, 23998.04, 0.00, 0.00, 0.00
88, -60682.77, -28858.38, -22874.42, 18570.99, 516.71, -5658.59, 26160.26, 23999.31, 0.00, 0.00, 0.00
89, -60681.45, -28854.40, -22870.10, 18566.83, 512.55, -5660.60, 26159.97, 24003.34, 0.00, 0.00, 0.00
90, -60653.45, -28838.64, -22846.14, 18558.32, 505.35, -5666.14, 26157.71, 23998.08, 0.00, 0.00, 0.00
91, -60643.07, -28838.51, -22843.84, 18558.25, 504.99, -5665.52, 26160.82, 24001.12, 0.00, 0.00, 0.00
92, -60623.32, -28829.53, -22833.89, 18553.71, 500.92, -5669.03, 26161.38, 23999.71, 0.00, 0.00, 0.00
93, -60618.46, -28834.53, -22838.92, 18550.58, 500.43, -5668.98, 26162.11, 23996.72, 0.00, 0.00, 0.00
94, -60624.01, -28840.48, -22845.74, 18550.79, 501.22, -5667.17, 26165.71, 23999.89, 0.00, 0.00, 0.00
95, -60612.03, -28830.71, -22834.07, 18549.73, 499.54, -5668.78, 26165.31, 23996.92, -0.38, -0.38, 0.85
96, -60601.48, -28829.77, -22830.43, 18551.34, 501.35, -5666.17, 26166.81, 24002.40, 0.00, 0.00, 0.00
97, -60605.12, -28835.36, -22839.10, 18550.94, 499.23, -5670.03, 26159.74, 23991.78, 0.00, 0.00, 0.00
98, -60601.07, -28834.31, -22836.49, 18548.08, 495.47, -5672.47, 26159.21, 23991.02, 0.00, 0.00, 0.00
99, -60614.49, -28843.88, -22848.56, 18555.14, 500.39, -5665.27, 26168.08, 24000.47, 0.00, 0.00, 0.00
100, -60600.85, -28834.73, -22836.33, 18557.87, 502.89, -5664.74, 26166.27, 23994.55, 0.00, 0.00, 0.00
101, -60589.74, -28829.70, -22831.19, 18558.63, 502.80, -5664.85, 26165.69, 24001.66, 0.00, 0.00, 0.00
102, -60591.89, -28835.31, -22839.08, 18559.05, 504.23, -5661.83, 26171.90, 24009.66, 0.00, 0.00, 0.00
103, -60607.20, -28843.67, -22851.80, 18560.20, 507.14, -5658.59, 26171.72, 24007.54, 0.00, 0.00, 0.00
104, -60628.37, -28850.80, -22863.49, 18561.09, 507.68, -5657.52, 26173.15, 24013.08, 0.00, 0.00, 0.00
105, -60625.17, -28842.49, -22855.46, 18559.12, 504.88, -5659.71, 26171.97, 24008.75, 0.00, 0.00, 0.00
106, -60621.01, -28843.90, -22852.76, 18560.37, 506.56, -5656.76, 26172.82, 24008.07, -0.38, -0.38, 0.85
107, -60624.21, -28843.96, -22852.40, 18558.12, 503.94, -5656.71, 26171.14, 24007.52, 0.00, 0.00, 0.00
108, -60622.24, -28843.23, -22851.30, 18558.34, 505.10, -5656.04, 26168.66, 24005.68, 0.00, 0.00, 0.00
109, -60625.91, -28845.06, -22854.57, 18554.81, 503.09, -5658.50, 26171.75, 24005.08, 0.00, 0.00, 0.00
110, -60612.27, -28837.68, -22845.22, 18558.63, 509.22, -5654.21, 26177.94, 24010.33, 0.00, 0.00, 0.00
111, -60617.57, -28841.37, -22851.53, 18560.11, 510.71, -5655.19, 26172.97, 24006.87, 0.00, 0.00, 0.00
112, -60607.94, -28833.88, -22843.50, 18566.72, 515.52, -5653.43, 26171.08, 24002.82, 0.00, 0.00, 0.00
113, -60615.43, -28843.54, -22852.27, 18564.04, 512.99, -5655.86, 26169.09, 23998.62, 0.00, 0.00, 0.00
114, -60624.43, -28849.26, -22858.12, 18565.85, 513.73, -5655.95, 26169.47, 23997.46, 0.00, 0.00, 0.00
115, -60612.09, -28839.29, -22845.29, 18570.30, 518.58, -5652.11, 26170.52, 24001.44, 0.00, 0.00, 0.00
116, -60621.24, -28846.98, -22855.42, 18571.04, 520.08, -5649.56, 26173.40, 24008.30, -0.38, -0.38, 0.84
117, -60617.19, -28840.01, -22847.68, 18570.52, 519.99, -5648.89, 26176.66, 24012.70, 0.00, 0.00, 0.00
118, -60599.29, -28832.12, -22835.46, 18567.06, 515.95, -5652.33, 26174.23, 24008.25, 0.00, 0.00, 0.00
119, -60587.24, -28832.14, -22832.28, 18568.06, 514.38, -5652.17, 26175.77, 24010.00, 0.00, 0.00, 0.00
120, -60595.98, -28837.71, -22840.89, 18566.43, 512.53, -5653.23, 26176.48, 24013.66, 0.00, 0.00, 0.00
121, -60582.19, -28831.56, -22831.93, 18559.61, 505.62, -5660.96, 26167.05, 24003.74, 0.00, 0.00, 0.00
122, -60590.93, -28840.97, -22842.86, 18559.95, 507.00, -5660.62, 26169.18, 24009.91, 0.00, 0.00, 0.00
123, -60601.66, -28843.94, -22849.90, 18559.66, 506.24, -5662.46, 26165.89, 24010.20, 0.00, 0.00, 0.00
124, -60620.52, -28850.69, -22860.42, 18556.55, 504.90, -5665.03, 26160.97, 24005.84, 0.00, 0.00, 0.00
125, -60614.26, -28844.59, -22850.32, 18554.47, 504.32, -5667.89, 26157.17, 23998.13, 0.00, 0.00, 0.00
126, -60605.41, -28840.66, -22844.18, 18559.77, 509.82, -5665.25, 26157.78, 23995.45, -0.37, -0.39, 0.84
127, -60610.69, -28844.17, -22851.28, 18566.39, 515.16, -5659.15, 26163.10, 23999.71, 0.00, 0.00, 0.00
128, -60627.92, -28849.33, -22860.49, 18565.83, 512.75, -5659.95, 26158.67, 23995.02, 0.00, 0.00, 0.00
129, -60602.51, -28833.84, -22838.68, 18564.53, 512.21, -5657.94, 26161.02, 23998.80, 0.00, 0.00, 0.00
130, -60604.90, -28843.34, -22848.06, 18562.94, 511.16, -5660.51, 26160.14, 23994.80, 0.00, 0.00, 0.00
131, -60611.43, -28842.00, -22851.17, 18567.82, 516.48, -5653.67, 26171.08, 24008.37, 0.00, 0.00, 0.00
132, -60574.81, -28826.73, -22823.97, 18568.22, 515.92, -5652.67, 26171.63, 24004.86, 0.00, 0.00, 0.00
133, -60569.16, -28830.73, -22827.08, 18568.98, 518.20, -5650.72, 26169.33, 24002.76, 0.00, 0.00, 0.00
134, -60584.56, -28840.81, -22846.01, 18574.99, 524.10, -5648.46, 26167.83, 23999.09, 0.00, 0.00, 0.00
135, -60599.73, -28842.82, -22856.47, 18568.44, 518.20, -5654.07, 26166.81, 23993.21, 0.00, 0.00, 0.00
136, -60584.47, -28833.77, -22839.86, 18566.19, 516.08, -5653.74, 26170.18, 23994.48, -0.38, -0.38, 0.84
137, -60592.65, -28843.85, -22849.38, 18573.43, 523.79, -5645.67, 26172.57, 24004.97, 0.00, 0.00, 0.00
138, -60600.09, -28843.23, -22851.10, 18574.52, 526.70, -5642.45, 26175.05, 24007.20, 0.00, 0.00, 0.00
139, -60595.87, -28840.81, -22845.63, 18571.39, 524.08, -5646.39, 26170.67, 23998.64, 0.00, 0.00, 0.00
140, -60598.26, -28841.71, -22846.66, 18573.54, 523.70, -5646.68, 26170.32, 24002.26, 0.00, 0.00, 0.00
141, -60581.29, -28834.17, -22836.87, 18573.83, 521.62, -5648.29, 26176.75, 23999.80, 0.00, 0.00, 0.00
142, -60579.73, -28836.97, -22840.82, 18574.93, 521.22, -5650.90, 26177.11, 24002.73, 0.00, 0.00, 0.00
143, -60569.56, -28831.83, -22833.20, 18574.81, 520.66, -5653.61, 26177.22, 24003.89, 0.00, 0.00, 0.00
144, -60561.04, -28834.08, -22832.80, 18576.04, 521.98, -5654.12, 26175.66, 23999.60, 0.00, 0.00, 0.00
145, -60579.95, -28845.30, -22851.04, 18577.12, 522.40, -5654.79, 26173.02, 23993.72, 0.00, 0.00, 0.00
146, -60586.84, -28843.79, -22853.96, 18573.40, 520.24, -5654.61, 26174.92, 24005.21, -0.38, -0.39, 0.85
147, -60573.88, -28835.27, -22841.83, 18573.63, 521.89, -5651.91, 26182.23, 24008.66, 0.00, 0.00, 0.00
148, -60594.79, -28848.19, -22858.05, 18568.35, 515.90, -5658.88, 26167.90, 23994.22, 0.00, 0.00, 0.00
149, -60591.87, -28841.37, -22850.41, 18569.92, 517.44, -5658.03, 26166.70, 23993.21, 0.00, 0.00, 0.00
150, -60593.95, -28845.21, -22852.85, 18572.24, 519.48, -5655.19, 26177.54, 24004.21, 0.00, 0.00, 0.00
151, -60594.73, -28843.54, -22852.45, 18571.64, 517.22, -5658.46, 26172.57, 23998.69, 0.00, 0.00, 0.00
152, -60594.62, -28842.06, -22851.60, 18573.54, 518.47, -5657.92, 26169.51, 23995.51, 0.00, 0.00, 0.00
153, -60580.96, -28836.14, -22840.51, 18573.56, 518.31, -5658.99, 26169.53, 23996.07, 0.00, 0.00, 0.00
154, -60578.05, -28841.68, -22844.13, 18571.91, 517.91, -5659.15, 26176.26, 24003.13, 0.00, 0.00, 0.00
155, -60591.78, -28847.74, -22857.72, 18570.79, 515.59, -5662.90, 26172.62, 23999.58, 0.00, 0.00, 0.00
156, -60615.27, -28852.01, -22870.84, 18574.23, 519.14, -5657.87, 26176.39, 24007.14, 0.00, 0.00, 0.00
157, -60616.48, -28848.39, -22865.10, 18575.80, 519.59, -5657.09, 26174.14, 24003.34, -0.37, -0.38, 0.85
158, -60594.26, -28834.44, -22843.44, 18575.95, 519.88, -5658.57, 26174.00, 23999.71, 0.00, 0.00, 0.00
159, -60584.94, -28837.24, -22843.21, 18575.46, 519.63, -5660.24, 26172.84, 24006.80, 0.00, 0.00, 0.00
160, -60595.60, -28844.99, -22854.61, 18574.14, 517.80, -5663.73, 26168.15, 23995.02, 0.00, 0.00, 0.00
161, -60604.94, -28847.03, -22859.89, 18574.30, 517.80, -5662.03, 26170.90, 23997.01, 0.00, 0.00, 0.00
162, -60610.87, -28843.49, -22860.58, 18575.73, 518.90, -5660.33, 26173.58, 24002.33, 0.00, 0.00, 0.00
163, -60597.93, -28835.36, -22849.76, 18576.51, 520.17, -5661.23, 26169.94, 23997.12, 0.00, 0.00, 0.00
164, -60595.20, -28839.85, -22849.65, 18574.81, 519.88, -5662.75, 26165.31, 23994.13, 0.00, 0.00, 0.00
165, -60619.07, -28853.55, -22868.16, 18578.86, 524.68, -5656.96, 26171.77, 24001.59, 0.00, 0.00, 0.00
166, -60636.26, -28854.25, -22874.13, 18582.70, 528.33, -5651.55, 26176.98, 24006.33, 0.00, 0.00, 0.00
167, -60623.72, -28845.28, -22859.20, 18576.42, 520.15, -5661.88, 26165.82, 23993.93, -0.37, -0.38, 0.85
168, -60629.91, -28849.24, -22862.50, 18578.05, 521.73, -5660.98, 26170.29, 23999.94, 0.00, 0.00, 0.00
169, -60644.97, -28853.26, -22871.73, 18579.22, 524.33, -5657.34, 26175.19, 24012.32, 0.00, 0.00, 0.00
170, -60659.04, -28854.22, -22877.61, 18576.73, 522.38, -5657.49, 26171.95, 24007.45, 0.00, 0.00, 0.00
171, -60658.61, -28849.31, -22870.39, 18572.35, 518.69, -5661.09, 26172.95, 23999.67, 0.00, 0.00, 0.00
172, -60644.30, -28842.80, -22857.65, 18570.19, 515.90, -5663.17, 26171.34, 24003.40, 0.00, 0.00, 0.00
173, -60659.70, -28854.74, -22871.94, 18566.39, 513.06, -5664.07, 26170.92, 24002.78, 0.00, 0.00, 0.00
174, -60663.97, -28849.82, -22867.60, 18573.03, 520.89, -5654.52, 26180.44, 24013.13, 0.00, 0.00, 0.00
175, -60666.39, -28851.47, -22866.97, 18574.70, 522.27, -5653.69, 26184.60, 24008.16, 0.00, 0.00, 0.00
176, -60663.55, -28849.89, -22862.95, 18570.23, 517.35, -5660.44, 26178.76, 23998.06, 0.00, 0.00, 0.00
177, -60656.91, -28848.43, -22858.84, 18570.61, 519.34, -5658.03, 26181.89, 24004.63, -0.38, -0.38, 0.85
178, -60666.25, -28853.33, -22865.14, 18570.16, 518.81, -5657.92, 26176.39, 24000.95, 0.00, 0.00, 0.00
179, -60673.54, -28852.79, -22869.30, 18566.23, 515.30, -5660.94, 26177.49, 24001.53, 0.00, 0.00, 0.00
180, -60677.86, -28851.79, -22871.64, 18567.39, 516.17, -5660.89, 26177.31, 24006.80, 0.00, 0.00, 0.00
181, -60678.14, -28849.55, -22872.29, 18566.97, 515.16, -5663.60, 26173.36, 24002.35, 0.00, 0.00, 0.00
182, -60670.59, -28843.00, -22864.58, 18565.83, 512.99, -5665.18, 26173.42, 23996.21, 0.00, 0.00, 0.00
183, -60663.75, -28844.23, -22860.56, 18565.25, 510.58, -5668.78, 26167.81, 23979.20, 0.00, 0.00, 0.00
184, -60682.59, -28856.57, -22873.59, 18574.77, 521.49, -5656.69, 26181.58, 24006.11, 0.00, 0.00, 0.00
185, -60687.13, -28853.84, -22873.46, 18571.33, 517.40, -5661.61, 26173.27, 23996.34, 0.00, 0.00, 0.00
186, -60691.73, -28856.44, -22876.63, 18572.94, 519.88, -5659.37, 26172.46, 23996.12, 0.00, 0.00, 0.00
187, -60693.28, -28854.29, -22872.29, 18567.64, 515.45, -5662.28, 26169.60, 23994.87, -0.37, -0.38, 0.85
188, -60670.25, -28839.43, -22852.15, 18565.31, 513.73, -5663.95, 26168.97, 23992.21, 0.00, 0.00, 0.00
189, -60669.88, -28848.59, -22859.24, 18565.65, 515.10, -5660.71, 26174.85, 24004.16, 0.00, 0.00, 0.00
190, -60679.87, -28851.23, -22866.41, 18562.54, 511.25, -5663.02, 26178.63, 24003.65, 0.00, 0.00, 0.00
191, -60685.18, -28854.13, -22871.64, 18559.17, 508.28, -5666.44, 26177.31, 23994.75, 0.00, 0.00, 0.00
192, -60686.08, -28851.34, -22871.56, 18557.45, 508.01, -5666.61, 26174.61, 23995.96, 0.00, 0.00, 0.00
193, -60685.34, -28849.42, -22869.61, 18560.62, 512.17, -5662.97, 26175.41, 24000.10, 0.00, 0.00, 0.00
194, -60689.48, -28850.60, -22871.91, 18561.78, 514.36, -5660.87, 26178.05, 24001.48, 0.00, 0.00, 0.00
195, -60684.13, -28848.10, -22863.82, 18562.21, 513.96, -5661.96, 26173.36, 23996.07, 0.00, 0.00, 0.00
196, -60689.54, -28853.20, -22871.91, 18557.94, 509.87, -5667.15, 26169.44, 23991.87, 0.00, 0.00, 0.00
197, -60700.32, -28858.02, -22878.44, 18559.77, 511.54, -5666.12, 26171.57, 24002.11, -0.37, -0.38, 0.85
198, -60717.02, -28864.17, -22887.56, 18559.37, 511.72, -5665.38, 26173.80, 23999.74, 0.00, 0.00, 0.00
199, -60725.53, -28863.23, -22887.27, 18560.66, 512.70, -5664.20, 26175.75, 24000.95, 0.00, 0.00, 0.00
200, -60729.00, -28862.45, -22887.27, 18560.84, 512.66, -5665.23, 26174.21, 23997.73, 0.00, 0.00, 0.00
201, -60745.71, -28867.50, -22898.51, 18558.07, 510.78, -5667.89, 26171.90, 23995.80, 0.00, 0.00, 0.00
202, -60746.59, -28864.57, -22895.70, 18558.23, 512.15, -5665.47, 26171.59, 24000.39, 0.00, 0.00, 0.00
203, -60750.68, -28859.48, -22890.55, 18558.18, 512.37, -5662.93, 26174.21, 24001.48, 0.00, 0.00, 0.00
204, -60743.81, -28857.55, -22881.64, 18561.38, 516.86, -5657.94, 26176.46, 24003.49, 0.00, 0.00, 0.00
205, -60765.54, -28867.19, -22896.68, 18559.77, 515.61, -5659.13, 26171.25, 23995.98, 0.00, 0.00, 0.00
206, -60760.18, -28860.33, -22887.22, 18556.44, 514.00, -5660.62, 26165.69, 23993.05, 0.00, 0.00, 0.00
207, -60743.77, -28855.21, -22873.17, 18557.40, 517.58, -5655.28, 26173.24, 24003.96, 0.00, 0.00, 0.00
208, -60762.30, -28867.37, -22890.31, 18553.02, 512.66, -5661.00, 26172.91, 23996.05, -0.37, -0.38, 0.85
209, -60771.62, -28867.81, -22891.76, 18557.29, 514.45, -5660.47, 26179.17, 23995.27, 0.00, 0.00, 0.00
210, -60766.10, -28865.15, -22884.70, 18558.68, 514.54, -5660.31, 26180.80, 23996.25, 0.00, 0.00, 0.00
211, -60767.37, -28866.61, -22887.49, 18555.70, 509.93, -5662.97, 26178.99, 23997.88, 0.00, 0.00, 0.00
212, -60762.41, -28859.63, -22879.60, 18553.42, 506.67, -5664.89, 26177.74, 23996.79, 0.00, 0.00, 0.00
213, -60754.57, -28858.54, -22876.29, 18554.58, 507.68, -5666.23, 26176.37, 24000.50, 0.00, 0.00, 0.00
214, -60739.68, -28849.17, -22864.72, 18556.28, 509.31, -5666.61, 26179.03, 23996.12, 0.00, 0.00, 0.00
215, -60717.15, -28846.49, -22854.93, 18556.78, 510.00, -5664.40, 26181.58, 24003.13, 0.00, 0.00, 0.00
216, -60712.75, -28846.98, -22858.28, 18551.48, 504.70, -5668.83, 26176.31, 23998.06, 0.00, 0.00, 0.00
217, -60715.25, -28851.99, -22866.75, 18551.12, 505.10, -5669.65, 26174.18, 23997.08, 0.00, 0.00, 0.00
218, -60727.14, -28858.54, -22877.05, 18554.74, 509.80, -5667.06, 26174.52, 23994.60, -0.38, -0.38, 0.86
219, -60727.03, -28857.20, -22872.52, 18557.63, 513.29, -5666.28, 26174.52, 23994.35, 0.00, 0.00, 0.00
220, -60724.64, -28857.51, -22869.52, 18557.15, 513.67, -5667.42, 26174.07, 23995.98, 0.00, 0.00, 0.00
221, -60733.22, -28861.33, -22879.49, 18556.26, 513.91, -5668.96, 26171.68, 23991.04, 0.00, 0.00, 0.00
222, -60743.14, -28865.69, -22886.78, 18561.25, 519.68, -5664.60, 26174.05, 23990.80, 0.00, 0.00, 0.00
223, -60727.88, -28855.19, -22873.08, 18558.65, 516.75, -5664.02, 26175.21, 23988.54, 0.00, 0.00, 0.00
224, -60740.24, -28866.27, -22886.38, 18556.02, 512.88, -5666.77, 26172.28, 23985.19, 0.00, 0.00, 0.00
225, -60754.03, -28867.75, -22889.97, 18557.45, 515.05, -5665.18, 26173.09, 23989.52, 0.00, 0.00, 0.00
226, -60744.82, -28861.62, -22879.47, 18560.87, 519.75, -5662.84, 26173.87, 23990.64, 0.00, 0.00, 0.00
227, -60746.61, -28864.79, -22880.83, 18563.71, 523.77, -5662.01, 26169.44, 23987.96, 0.00, 0.00, 0.00
228, -60753.63, -28864.75, -22885.10, 18563.08, 521.65, -5664.36, 26163.25, 23984.92, -0.37, -0.37, 0.85
229, -60760.40, -28865.06, -22888.72, 18563.14, 520.77, -5665.05, 26162.96, 23988.96, 0.00, 0.00, 0.00
230, -60766.50, -28867.54, -22891.63, 18565.98, 523.39, -5664.29, 26163.52, 23988.90, 0.00, 0.00, 0.00
231, -60762.12, -28864.39, -22883.27, 18566.43, 522.54, -5665.59, 26160.12, 23981.05, 0.00, 0.00, 0.00
232, -60746.63, -28859.12, -22875.42, 18567.55, 523.97, -5662.12, 26164.84, 23985.66, 0.00, 0.00, 0.00
233, -60750.39, -28863.79, -22885.44, 18566.36, 523.84, -5661.07, 26171.63, 24003.11, 0.00, 0.00, 0.00
234, -60763.59, -28870.90, -22896.59, 18559.12, 514.56, -5671.42, 26166.36, 23990.06, 0.00, 0.00, 0.00
235, -60754.36, -28860.33, -22885.62, 18557.02, 509.51, -5677.43, 26161.67, 23978.91, 0.00, 0.00, 0.00
236, -60730.61, -28854.13, -22869.66, 18560.69, 515.97, -5669.39, 26171.01, 23988.85, 0.00, 0.00, 0.00
237, -60725.20, -28857.98, -22870.19, 18559.14, 516.24, -5666.88, 26171.68, 23989.03, 0.00, 0.00, 0.00
238, -60708.39, -28852.75, -22863.04, 18557.85, 515.90, -5667.11, 26173.15, 23993.01, -0.37, -0.37, 0.85
239, -60707.36, -28857.55, -22868.16, 18560.69, 520.75, -5661.56, 26180.13, 24004.05, 0.00, 0.00, 0.00
240, -60731.01, -28869.22, -22886.98, 18556.62, 518.85, -5660.98, 26180.53, 24006.35, 0.00, 0.00, 0.00
241, -60751.55, -28874.23, -22896.59, 18557.47, 520.97, -5656.58, 26183.53, 24008.28, 0.00, 0.00, 0.00
242, -60728.93, -28857.40, -22874.15, 18552.69, 518.25, -5659.51, 26178.14, 24003.43, 0.00, 0.00, 0.00
243, -60707.13, -28853.62, -22860.47, 18553.36, 518.74, -5661.16, 26175.81, 24000.97, 0.00, 0.00, 0.00
244, -60718.00, -28862.96, -22872.92, 18556.71, 520.84, -5661.65, 26175.10, 23997.19, 0.00, 0.00, 0.00
245, -60718.55, -28867.08, -22875.04, 18552.19, 514.18, -5668.85, 26166.05, 23986.84, 0.00, 0.00, 0.00
246, -60735.92, -28873.13, -22888.25, 18550.29, 511.23, -5672.74, 26164.10, 23984.96, 0.00, 0.00, 0.00
247, -60723.77, -28863.75, -22876.85, 18557.07, 518.49, -5666.01, 26176.11, 23996.52, 0.00, 0.00, 0.00
248, -60731.52, -28872.22, -22887.04, 18559.57, 518.58, -5666.48, 26175.81, 23987.51, -0.37, -0.38, 0.85
249, -60733.96, -28870.29, -22887.67, 18554.92, 512.39, -5671.89, 26170.56, 23980.02, 0.00, 0.00, 0.00
250, -60747.99, -28876.46, -22897.33, 18556.66, 513.13, -5673.25, 26166.47, 23979.04, 0.00, 0.00, 0.00
251, -60762.23, -28881.34, -22903.25, 18557.94, 514.22, -5673.34, 26167.77, 23981.30, 0.00, 0.00, 0.00
252, -60777.72, -28882.74, -22907.43, 18559.93, 517.91, -5666.03, 26177.22, 23998.38, 0.00, 0.00, 0.00
253, -60756.04, -28867.08, -22885.10, 18554.09, 513.31, -5668.92, 26171.23, 23986.93, 0.00, 0.00, 0.00
254, -60736.75, -28864.13, -22874.71, 18556.28, 515.34, -5665.56, 26171.68, 23986.30, 0.00, 0.00, 0.00
255, -60729.02, -28869.18, -22874.13, 18558.00, 518.63, -5660.69, 26177.15, 23994.13, 0.00, 0.00, 0.00
0, -60749.78, -28878.36, -22894.89, 18555.95, 517.35, -5661.45, 26173.89, 23989.61, 0.00, 0.00, 0.00
1, -60748.22, -28872.73, -22890.87, 18554.88, 515.99, -5662.37, 26167.92, 23985.30, 0.00, 0.00, 0.00
2, -60739.68, -28867.57, -22882.11, 18556.02, 517.44, -5658.68, 26179.17, 23991.13, 0.00, 0.00, 0.00
3, -60739.77, -28870.59, -22883.18, 18560.53, 521.73, -5654.83, 26187.84, 24005.55, -0.37, -0.38, 0.85
4, -60745.82, -28874.14, -22888.74, 18560.91, 519.41, -5659.31, 26184.69, 24001.01, 0.00, 0.00, 0.00
5, -60750.79, -28877.65, -22891.90, 18554.47, 511.90, -5665.94, 26176.44, 23991.87, 0.00, 0.00, 0.00
6, -60739.05, -28870.54, -22881.53, 18550.38, 508.32, -5670.23, 26173.65, 23994.02, 0.00, 0.00, 0.00
7, -60734.18, -28868.60, -22878.71, 18546.11, 504.86, -5676.61, 26170.83, 23992.76, 0.00, 0.00, 0.00
8, -60744.93, -28876.80, -22887.54, 18542.89, 500.16, -5683.29, 26166.20, 23989.43, 0.00, 0.00, 0.00
9, -60756.22, -28879.35, -22893.57, 18541.87, 496.39, -5685.77, 26161.64, 23985.34, 0.00, 0.00, 0.00
10, -60744.35, -28872.11, -22881.35, 18537.75, 491.94, -5689.14, 26156.05, 23978.91, 0.00, 0.00, 0.00
11, -60754.59, -28882.72, -22894.42, 18536.26, 492.23, -5688.14, 26156.14, 23977.68, 0.00, 0.00, 0.00
12, -60755.44, -28878.45, -22892.97, 18533.31, 488.59, -5692.03, 26147.18, 23964.94, 0.00, 0.00, 0.00
13, -60751.05, -28877.11, -22891.27, 18537.35, 494.62, -5683.65, 26155.54, 23971.78, -0.37, -0.38, 0.85
14, -60737.98, -28873.49, -22883.58, 18548.51, 508.03, -5669.65, 26167.25, 23976.09, 0.00, 0.00, 0.00
15, -60747.37, -28879.35, -22890.69, 18553.13, 515.97, -5663.28, 26171.39, 23973.56, 0.00, 0.00, 0.00
16, -60752.20, -28880.44, -22893.79, 18550.81, 515.54, -5663.86, 26169.44, 23976.13, 0.00, 0.00, 0.00
17, -60748.33, -28875.21, -22888.95, 18558.18, 521.65, -5656.13, 26180.29, 23985.03, 0.00, 0.00, 0.00
18, -60745.13, -28876.35, -22887.34, 18559.73, 523.23, -5653.36, 26187.17, 23991.63, 0.00, 0.00, 0.00
19, -60740.48, -28871.79, -22882.06, 18556.06, 519.54, -5659.73, 26180.55, 23980.98, 0.00, 0.00, 0.00
20, -60728.95, -28869.47, -22874.95, 18558.85, 522.00, -5660.82, 26176.78, 23981.99, 0.00, 0.00, 0.00
21, -60739.01, -28877.47, -22886.31, 18563.82, 525.47, -5658.79, 26179.84, 23987.98, 0.00, 0.00, 0.00
22, -60756.64, -28884.96, -22898.24, 18563.30, 525.33, -5658.41, 26179.61, 23993.57, 0.00, 0.00, 0.00
23, -60762.34, -28881.56, -22897.75, 18561.36, 523.12, -5661.85, 26178.14, 23998.08, -0.38, -0.38, 0.85
24, -60751.73, -28876.69, -22890.18, 18560.60, 522.63, -5665.50, 26174.76, 23995.96, 0.00, 0.00, 0.00
25, -60758.61, -28882.63, -22897.48, 18555.41, 516.97, -5672.90, 26164.62, 23988.88, 0.00, 0.00, 0.00
26, -60762.86, -28882.90, -22899.72, 18557.04, 516.84, -5673.34, 26161.58, 23990.06, 0.00, 0.00, 0.00
27, -60763.86, -28881.78, -22899.63, 18558.65, 516.91, -5673.03, 26160.55, 23991.15, 0.00, 0.00, 0.00
28, -60760.11, -28879.59, -22895.25, 18556.80, 513.13, -5677.10, 26160.17, 23985.37, 0.00, 0.00, 0.00
29, -60737.67, -28870.54, -22879.76, 18557.00, 512.73, -5676.90, 26164.75, 23989.25, 0.00, 0.00, 0.00
30, -60723.23, -28871.86, -22876.58, 18555.72, 510.96, -5677.66, 26162.58, 23985.81, 0.00, 0.00, 0.00
31, -60735.97, -28877.83, -22886.96, 18556.66, 511.56, -5675.38, 26160.75, 23981.39, 0.00, 0.00, 0.00
32, -60722.13, -28869.94, -22876.38, 18559.01, 515.36, -5668.22, 26165.82, 23991.71, 0.00, 0.00, 0.00
33, -60726.47, -28875.97, -22885.08, 18557.74, 516.86, -5666.21, 26168.37, 23988.96, -0.38, -0.38, 0.85
34, -60712.84, -28867.52, -22876.72, 18559.19, 519.59, -5662.64, 26172.53, 23993.55, 0.00, 0.00, 0.00
35, -60720.41, -28876.40, -22886.98, 18557.78, 518.25, -5663.80, 26169.29, 23988.14, 0.00, 0.00, 0.00
36, -60731.57, -28881.67, -22894.82, 18556.35, 518.11, -5665.14, 26172.66, 23987.15, 0.00, 0.00, 0.00
37, -60721.46, -28872.89, -22886.64, 18562.81, 524.68, -5661.81, 26176.98, 23987.67, 0.00, 0.00, 0.00
38, -60712.19, -28872.13, -22881.59, 18569.56, 530.36, -5657.76, 26179.64, 23987.80, 0.00, 0.00, 0.00
39, -60737.42, -28885.98, -22901.60, 18565.04, 525.85, -5659.33, 26181.85, 23986.48, 0.00, 0.00, 0.00
40, -60755.59, -28887.59, -22910.40, 18559.35, 519.32, -5664.22, 26174.58, 23978.59, 0.00, 0.00, 0.00
41, -60750.77, -28880.42, -22900.41, 18557.56, 518.31, -5662.39, 26176.64, 23993.46, 0.00, 0.00, 0.00
42, -60739.90, -28877.78, -22892.90, 18562.88, 524.08, -5652.93, 26185.94, 24009.33, 0.00, 0.00, 0.00
43, -60744.20, -28879.08, -22895.03, 18564.20, 525.33, -5650.77, 26183.93, 24006.06, -0.38, -0.38, 0.85
44, -60727.65, -28871.50, -22882.22, 18565.34, 526.32, -5651.64, 26181.47, 24003.11, 0.00, 0.00, 0.00
45, -60727.72, -28875.59, -22888.43, 18570.23, 530.00, -5651.88, 26179.75, 24000.77, 0.00, 0.00, 0.00
46, -60735.86, -28882.63, -22894.40, 18568.62, 526.96, -5657.27, 26175.52, 23993.66, 0.00, 0.00, 0.00
47, -60741.82, -28883.33, -22894.04, 18567.91, 525.47, -5658.93, 26172.66, 23992.70, 0.00, 0.00, 0.00
48, -60740.91, -28881.58, -22892.25, 18568.58, 524.01, -5660.49, 26173.60, 23996.81, 0.00, 0.00, 0.00
49, -60736.71, -28881.40, -22889.79, 18569.25, 522.74, -5663.57, 26170.23, 23994.35, 0.00, 0.00, 0.00
50, -60727.05, -28876.04, -22884.21, 18563.97, 515.99, -5670.77, 26160.50, 23983.44, 0.00, 0.00, 0.00
51, -60728.55, -28882.16, -22889.68, 18558.92, 509.35, -5676.58, 26154.29, 23976.58, 0.00, 0.00, 0.00
52, -60739.95, -28885.43, -22895.47, 18562.63, 511.54, -5675.31, 26154.63, 23976.22, 0.00, 0.00, 0.00
53, -60735.36, -28881.47, -22890.89, 18563.19, 512.37, -5675.26, 26152.61, 23980.36, 0.00, 0.00, 0.00
54, -60737.60, -28884.62, -22895.81, 18561.09, 509.78, -5679.56, 26150.89, 23972.67, -0.37, -0.38, 0.86
55, -60738.11, -28883.79, -22892.10, 18557.63, 507.00, -5681.05, 26150.29, 23967.44, 0.00, 0.00, 0.00
56, -60742.34, -28885.14, -22892.57, 18556.73, 507.14, -5676.72, 26154.22, 23969.70, 0.00, 0.00, 0.00
57, -60726.31, -28879.57, -22881.86, 18555.63, 506.78, -5675.96, 26156.50, 23970.03, 0.00, 0.00, 0.00
58, -60734.40, -28888.58, -22894.71, 18557.87, 510.60, -5672.34, 26161.60, 23977.12, 0.00, 0.00, 0.00
59, -60753.54, -28892.51, -22907.03, 18555.54, 508.82, -5672.22, 26163.90, 23980.61, 0.00, 0.00, 0.00
60, -60727.77, -28874.79, -22883.38, 18553.71, 507.09, -5672.20, 26165.62, 23979.42, 0.00, 0.00, 0.00
61, -60720.64, -28876.96, -22882.64, 18553.15, 507.03, -5673.14, 26165.00, 23978.03, 0.00, 0.00, 0.00
62, -60722.85, -28879.73, -22886.20, 18554.07, 509.20, -5673.30, 26163.43, 23979.93, 0.00, 0.00, 0.00
63, -60745.71, -28889.83, -22902.24, 18551.10, 507.47, -5676.34, 26158.00, 23975.46, 0.00, 0.00, 0.00
64, -60722.85, -28871.90, -22878.96, 18557.63, 513.98, -5666.90, 26169.06, 23990.71, -0.37, -0.39, 0.85
65, -60723.23, -28877.83, -22884.18, 18561.40, 518.36, -5662.17, 26173.78, 23998.15, 0.00, 0.00, 0.00
66, -60735.66, -28885.81, -22894.80, 18557.89, 515.05, -5666.86, 26167.61, 23989.77, 0.00, 0.00, 0.00
67, -60746.65, -28889.34, -22900.28, 18556.42, 511.54, -5671.51, 26161.73, 23980.45, 0.00, 0.00, 0.00
68, -60722.02, -28875.17, -22879.04, 18558.43, 511.90, -5671.15, 26157.13, 23983.26, 0.00, 0.00, 0.00
69, -60714.13, -28879.82, -22879.83, 18560.49, 514.36, -5671.82, 26159.23, 23989.57, 0.00, 0.00, 0.00
70, -60724.12, -28888.24, -22892.95, 18559.50, 514.29, -5674.86, 26156.48, 23986.64, 0.00, 0.00, 0.00
71, -60733.06, -28890.28, -22897.80, 18560.62, 514.98, -5673.81, 26158.20, 23988.00, 0.00, 0.00, 0.00
72, -60722.40, -28884.31, -22888.32, 18566.28, 519.14, -5668.31, 26163.36, 23998.42, 0.00, 0.00, 0.00
73, -60714.22, -28882.48, -22882.73, 18561.54, 514.83, -5672.78, 26160.12, 23990.57, 0.00, 0.00, 0.00
74, -60711.34, -28884.02, -22882.96, 18558.07, 511.43, -5676.38, 26156.99, 23978.91, -0.37, -0.39, 0.85
75, -60682.19, -28869.04, -22865.99, 18561.40, 515.30, -5669.85, 26162.47, 23987.24, 0.00, 0.00, 0.00
76, -60687.18, -28878.43, -22880.52, 18559.77, 514.94, -5666.50, 26166.67, 23999.31, 0.00, 0.00, 0.00
77, -60702.35, -28885.11, -22891.87, 18554.34, 509.13, -5671.35, 26161.87, 23990.89, 0.00, 0.00, 0.00
78, -60695.40, -28878.81, -22884.38, 18552.46, 508.23, -5673.59, 26163.07, 23984.16, 0.00, 0.00, 0.00
79, -60678.61, -28872.24, -22872.85, 18551.81, 507.47, -5675.98, 26160.84, 23981.65, 0.00, 0.00, 0.00
80, -60669.72, -28872.44, -22871.36, 18555.99, 510.94, -5672.45, 26159.01, 23981.41, 0.00, 0.00, 0.00
81, -60678.93, -28880.73, -22881.53, 18558.14, 511.79, -5672.34, 26154.85, 23978.10, 0.00, 0.00, 0.00
82, -60690.01, -28886.48, -22889.93, 18561.67, 515.34, -5671.20, 26156.41, 23984.63, 0.00, 0.00, 0.00
83, -60706.31, -28889.67, -22900.08, 18563.77, 517.55, -5670.84, 26160.73, 23990.53, 0.00, 0.00, 0.00
84, -60711.71, -28887.53, -22897.84, 18562.92, 516.53, -5671.29, 26163.79, 23990.46, -0.37, -0.38, 0.85
85, -60707.20, -28884.73, -22890.26, 18562.23, 515.74, -5671.35, 26162.45, 23987.40, 0.00, 0.00, 0.00
86, -60700.23, -28880.69, -22882.13, 18560.60, 515.05, -5672.13, 26158.34, 23985.68, 0.00, 0.00, 0.00
87, -60707.02, -28889.23, -22892.86, 18560.17, 516.24, -5673.63, 26156.21, 23977.10, 0.00, 0.00, 0.00
88, -60705.75, -28886.83, -22891.45, 18556.15, 512.66, -5676.29, 26152.63, 23974.08, 0.00, 0.00, 0.00
89, -60700.38, -28881.94, -22887.49, 18560.57, 518.02, -5665.32, 26169.15, 23998.89, 0.00, 0.00, 0.00
90, -60703.60, -28885.98, -22893.71, 18561.11, 517.76, -5664.42, 26171.39, 23998.80, 0.00, 0.00, 0.00
91, -60711.18, -28888.64, -22897.73, 18559.12, 513.33, -5670.91, 26163.23, 23988.52, 0.00, 0.00, 0.00
92, -60705.70, -28885.09, -22890.55, 18558.83, 509.31, -5676.09, 26159.03, 23978.41, 0.00, 0.00, 0.00
93, -60681.79, -28874.97, -22870.24, 18563.77, 514.22, -5670.06, 26169.82, 23996.34, 0.00, 0.00, 0.00
94, -60677.92, -28878.52, -22871.85, 18564.89, 516.57, -5668.33, 26170.79, 24004.52, -0.37, -0.38, 0.85
95, -60689.36, -28887.68, -22886.02, 18566.05, 518.63, -5669.12, 26167.03, 23996.45, 0.00, 0.00, 0.00
96, -60726.27, -28899.58, -22910.65, 18566.65, 519.54, -5669.30, 26166.94, 23995.83, 0.00, 0.00, 0.00
97, -60718.63, -28890.95, -22898.38, 18569.65, 520.59, -5667.87, 26167.30, 23994.22, 0.00, 0.00, 0.00
98, -60698.93, -28880.44, -22883.76, 18569.00, 518.20, -5670.77, 26160.99, 23982.50, 0.00, 0.00, 0.00
99, -60693.57, -28884.11, -22886.17, 18572.38, 523.05, -5666.26, 26167.74, 23996.29, 0.00, 0.00, 0.00
100, -60695.45, -28883.68, -22888.21, 18568.85, 517.91, -5670.95, 26166.47, 23995.54, 0.00, 0.00, 0.00
101, -60673.94, -28875.19, -22872.36, 18571.26, 517.40, -5672.56, 26165.53, 23993.08, 0.00, 0.00, 0.00
102, -60688.09, -28889.52, -22889.50, 18574.97, 518.96, -5674.46, 26163.43, 23987.82, 0.00, 0.00, 0.00
103, -60684.96, -28884.55, -22886.93, 18572.58, 516.62, -5679.33, 26156.44, 23979.46, 0.00, 0.00, 0.00
104, -60688.18, -28888.20, -22891.70, 18571.82, 518.02, -5678.80, 26155.76, 23980.56, 0.00, 0.00, 0.00
105, -60697.05, -28891.73, -22897.33, 18576.98, 524.13, -5672.78, 26159.34, 23990.04, -0.37, -0.39, 0.85
106, -60695.91, -28888.33, -22893.21, 18574.21, 521.98, -5675.44, 26155.85, 23982.39, 0.00, 0.00, 0.00
107, -60698.11, -28891.60, -22895.81, 18570.92, 519.88, -5677.01, 26158.56, 23981.05, 0.00, 0.00, 0.00
108, -60714.73, -28894.41, -22904.01, 18569.58, 519.41, -5678.10, 26157.44, 23980.94, 0.00, 0.00, 0.00
109, -60698.95, -28884.38, -22887.87, 18572.55, 522.32, -5674.57, 26161.13, 23984.05, 0.00, 0.00, 0.00
110, -60685.66, -28881.69, -22880.45, 18571.17, 520.82, -5674.79, 26158.71, 23980.72, 0.00, 0.00, 0.00
111, -60695.42, -28890.72, -22891.29, 18567.53, 518.83, -5677.63, 26153.37, 23979.11, 0.00, 0.00, 0.00
112, -60708.74, -28894.30, -22899.21, 18564.89, 516.71, -5680.23, 26154.98, 23983.85, 0.00, 0.00, 0.00
113, -60703.74, -28892.67, -22892.63, 18567.93, 515.83, -5680.18, 26153.82, 23981.28, 0.00, 0.00, 0.00
114, -60721.13, -28900.11, -22903.81, 18566.79, 513.55, -5678.46, 26156.77, 23991.22, 0.00, 0.00, 0.00
115, -60724.64, -28897.52, -22902.29, 18567.84, 516.10, -5676.20, 26160.23, 23995.07, -0.38, -0.38, 0.84
116, -60753.31, -28906.93, -22919.90, 18563.17, 512.19, -5681.75, 26154.24, 23985.05, 0.00, 0.00, 0.00
117, -60733.31, -28890.08, -22897.06, 18560.62, 510.36, -5685.08, 26149.46, 23976.67, 0.00, 0.00, 0.00
118, -60710.20, -28884.06, -22883.54, 18563.26, 514.60, -5680.54, 26155.07, 23985.61, 0.00, 0.00, 0.00
119, -60720.59, -28896.33, -22895.09, 18561.42, 512.61, -5683.27, 26153.35, 23982.79, 0.00, 0.00, 0.00
120, -60731.86, -28900.18, -22900.50, 18557.22, 507.30, -5690.33, 26147.61, 23975.35, 0.00, 0.00, 0.00
121, -60733.44, -28899.38, -22901.06, 18553.11, 503.65, -5694.02, 26144.97, 23973.23, 0.00, 0.00, 0.00
122, -60737.40, -28897.74, -22901.39, 18551.43, 503.14, -5692.77, 26145.10, 23973.97, 0.00, 0.00, 0.00
123, -60718.71, -28891.01, -22889.48, 18550.36, 503.38, -5689.39, 26154.29, 23980.04, 0.00, 0.00, 0.00
124, -60729.49, -28896.65, -22899.79, 18547.95, 501.68, -5690.58, 26154.51, 23980.67, 0.00, 0.00, 0.00
125, -60726.36, -28891.57, -22898.02, 18553.13, 507.38, -5686.19, 26156.41, 23979.08, -0.38, -0.39, 0.85
126, -60717.55, -28887.77, -22890.51, 18557.07, 509.40, -5682.69, 26155.27, 23981.45, 0.00, 0.00, 0.00
127, -60729.24, -28897.99, -22900.86, 18562.88, 514.67, -5678.51, 26157.98, 23983.94, 0.00, 0.00, 0.00
128, -60740.28, -28899.78, -22905.04, 18564.67, 515.86, -5680.00, 26151.92, 23972.78, 0.00, 0.00, 0.00
129, -60722.38, -28890.03, -22890.13, 18568.85, 520.59, -5676.25, 26154.24, 23975.33, 0.00, 0.00, 0.00
130, -60724.46, -28893.34, -22894.91, 18572.91, 525.42, -5671.49, 26160.77, 23982.88, 0.00, 0.00, 0.00
131, -60722.47, -28892.20, -22895.23, 18571.08, 523.19, -5673.07, 26163.63, 23977.07, 0.00, 0.00, 0.00
132, -60715.43, -28891.46, -22894.27, 18570.63, 525.18, -5669.18, 26166.63, 23987.36, 0.00, 0.00, 0.00
133, -60724.19, -28894.81, -22900.79, 18571.73, 527.75, -5666.99, 26170.03, 23988.63, 0.00, 0.00, 0.00
134, -60698.64, -28884.69, -22880.63, 18569.94, 525.53, -5669.56, 26163.88, 23982.77, 0.00, 0.00, 0.00
135, -60699.22, -28890.08, -22884.03, 18567.71, 523.50, -5671.11, 26159.30, 23983.89, -0.38, -0.38, 0.85
136, -60703.11, -28891.89, -22887.96, 18569.22, 526.41, -5668.33, 26161.89, 23992.72, 0.00, 0.00, 0.00
137, -60716.28, -28899.31, -22899.61, 18570.39, 527.30, -5670.91, 26157.13, 23982.33, 0.00, 0.00, 0.00
138, -60738.81, -28906.01, -22912.64, 18567.97, 525.42, -5671.80, 26160.95, 23991.94, 0.00, 0.00, 0.00
139, -60722.91, -28893.70, -22895.92, 18566.21, 523.16, -5673.23, 26159.47, 23990.64, 0.00, 0.00, 0.00
140, -60717.91, -28892.27, -22890.91, 18566.72, 521.73, -5675.91, 26155.36, 23982.82, 0.00, 0.00, 0.00
141, -60693.50, -28884.62, -22872.03, 18571.97, 525.78, -5674.01, 26154.80, 23986.80, 0.00, 0.00, 0.00
